Gain (V/A)	Calibration: V/I(Ohm)	I0 (pA)	B/V (T/V)	B0(T)	OFFSET current (pA)
1000000000.000000	0.449392	-0.007847	0.321660	0.002522	1.677746
T(K)	B(T)	I(pA)	t(s)	P(uC/m^2)	
4.49000	1.90816E-5	-0.09465	-0.03200	0.00000
4.48900	4.49886E-5	0.14405	0.06800	0.00369
4.48900	1.93959E-5	-0.10245	0.16801	0.00107
4.48900	0.00011	0.34935	0.26802	0.01003
4.48900	0.00027	-0.07265	0.36802	0.00816
4.48900	0.00044	0.00205	0.46803	0.00822
4.48900	0.00064	-0.37915	0.56803	-0.00151
4.48900	0.00076	0.86625	0.66804	0.02071
4.48900	0.00092	0.00915	0.76804	0.02094
4.48900	0.00110	0.18605	0.86805	0.02571
4.48900	0.00126	-0.01495	0.96806	0.02533
4.48900	0.00144	-0.09575	1.06806	0.02287
4.48900	0.00155	0.00785	1.16807	0.02307
4.48900	0.00176	0.12875	1.26807	0.02638
4.48900	0.00187	-0.36605	1.36808	0.01699
4.48900	0.00209	-0.02445	1.46808	0.01636
4.48900	0.00222	-0.03975	1.56809	0.01534
4.48900	0.00240	0.25245	1.66810	0.02182
4.48900	0.00249	-0.30955	1.76810	0.01388
4.48900	0.00257	0.08695	1.86811	0.01611
4.48900	0.00290	-0.08625	1.96811	0.01390
4.48900	0.00304	0.65875	2.06812	0.03079
4.48900	0.00325	0.01345	2.16812	0.03114
4.48900	0.00338	-0.09705	2.26813	0.02865
4.48900	0.00360	-0.03065	2.36814	0.02786
4.48900	0.00377	1.02355	2.46814	0.05411
4.48900	0.00398	-0.06075	2.56815	0.05255
4.48900	0.00412	0.12105	2.66815	0.05565
4.48900	0.00426	-0.87885	2.76816	0.03312
4.48900	0.00446	0.02315	2.86816	0.03371
4.48900	0.00460	0.00015	2.96817	0.03372
4.48900	0.00482	0.05665	3.06818	0.03517
4.48900	0.00498	-0.53845	3.16818	0.02136
4.48900	0.00515	0.18665	3.26819	0.02615
4.48900	0.00533	-0.19505	3.36819	0.02115
4.48900	0.00551	0.05765	3.46720	0.02261
4.48900	0.00569	-0.51945	3.56720	0.00929
4.48900	0.00585	0.14475	3.66721	0.01300
4.48900	0.00603	-0.02625	3.76722	0.01233
4.48900	0.00617	1.14535	3.86722	0.04170
4.48900	0.00635	-0.13305	3.96723	0.03829
4.48900	0.00656	0.08185	4.06723	0.04039
4.48900	0.00675	-0.03125	4.16724	0.03958
4.48900	0.00691	0.56385	4.26724	0.05404
4.48900	0.00708	-0.29945	4.36725	0.04636
4.48900	0.00727	0.07095	4.46726	0.04818
4.48900	0.00747	-0.02905	4.56726	0.04744
4.48900	0.00764	0.18405	4.66727	0.05216
4.48900	0.00776	-0.17565	4.76727	0.04765
4.48900	0.00796	0.20915	4.86728	0.05302
4.48900	0.00812	-0.18165	4.96728	0.04836
4.48900	0.00837	0.19535	5.06729	0.05337
4.48900	0.00848	-0.28755	5.16730	0.04600
4.48900	0.00867	0.06955	5.26730	0.04778
4.48900	0.00884	-0.13025	5.36731	0.04444
4.48900	0.00900	0.21495	5.46731	0.04995
4.48900	0.00920	-0.15055	5.56732	0.04609
4.48900	0.00931	0.47015	5.66732	0.05815
4.48900	0.00953	-0.04275	5.76733	0.05705
4.48900	0.00966	-0.06755	5.86734	0.05532
4.48900	0.00989	-0.10095	5.96734	0.05273
4.48900	0.01006	0.58775	6.06735	0.06780
4.48900	0.01022	0.02405	6.16735	0.06842
4.48900	0.01039	0.49245	6.26736	0.08105
4.48900	0.01059	-0.30605	6.36736	0.07320
4.48900	0.01073	-0.01585	6.46737	0.07279
4.48900	0.01089	-0.16705	6.56738	0.06851
4.48900	0.01110	0.14005	6.66738	0.07210
4.48900	0.01125	-0.31485	6.76739	0.06403
4.48900	0.01144	0.26465	6.86739	0.07081
4.48900	0.01162	-0.13565	6.96740	0.06734
4.48900	0.01179	0.11305	7.06740	0.07023
4.48900	0.01197	-0.99415	7.16741	0.04474
4.48900	0.01216	0.05715	7.26742	0.04621
4.48900	0.01232	-0.20245	7.36742	0.04102
4.48900	0.01247	0.07525	7.46743	0.04295
4.48900	0.01268	-0.24355	7.56743	0.03670
4.48900	0.01281	0.03645	7.66744	0.03764
4.48900	0.01304	-0.13145	7.76744	0.03427
4.48900	0.01320	0.34855	7.86745	0.04320
4.48900	0.01336	-0.10655	7.96746	0.04047
4.48900	0.01355	0.10895	8.06746	0.04326
4.48900	0.01369	-0.43515	8.16747	0.03211
4.48900	0.01390	-0.00955	8.26747	0.03186
4.48900	0.01403	-0.08645	8.36748	0.02965
4.48900	0.01422	0.00135	8.46748	0.02968
4.48900	0.01436	-0.13465	8.56749	0.02623
4.48900	0.01459	0.02125	8.66750	0.02677
4.48900	0.01475	-0.05145	8.76750	0.02545
4.48900	0.01492	0.08875	8.86751	0.02773
4.48900	0.01510	-0.66475	8.96751	0.01068
4.48800	0.01526	0.13845	9.06752	0.01423
4.48900	0.01543	-0.08075	9.16752	0.01216
4.48900	0.01556	1.11045	9.26753	0.04064
4.48800	0.01579	-0.09615	9.36754	0.03817
4.48900	0.01592	0.07195	9.46754	0.04002
4.48900	0.01614	-0.13805	9.56755	0.03648
4.48900	0.01631	0.90045	9.66755	0.05957
4.48900	0.01648	-0.34585	9.76756	0.05070
4.48900	0.01668	0.06705	9.86756	0.05242
4.48900	0.01684	-0.00565	9.96757	0.05227
4.48900	0.01705	0.23105	10.06758	0.05820
4.48900	0.01718	-0.06015	10.16758	0.05666
4.48900	0.01740	0.07495	10.26759	0.05858
4.48900	0.01752	-0.24015	10.36759	0.05242
4.48900	0.01772	0.04735	10.46760	0.05363
4.48900	0.01788	-0.44265	10.56760	0.04228
4.48900	0.01806	0.02475	10.66761	0.04292
4.48900	0.01822	-0.09315	10.76762	0.04053
4.48900	0.01837	0.17585	10.86762	0.04504
4.48900	0.01857	-0.13835	10.96763	0.04149
4.48900	0.01871	0.43635	11.06763	0.05268
4.48900	0.01892	-0.05785	11.16764	0.05120
4.48900	0.01908	0.04545	11.26764	0.05236
4.48900	0.01926	-0.25665	11.36765	0.04578
4.48900	0.01945	0.74995	11.46766	0.06501
4.48900	0.01961	-0.07315	11.56766	0.06314
4.48900	0.01981	0.17425	11.66767	0.06761
4.48900	0.01991	-0.17855	11.76767	0.06303
4.48900	0.02014	0.08675	11.86768	0.06525
4.48900	0.02027	-0.03145	11.96768	0.06445
4.48900	0.02047	0.14025	12.06769	0.06804
4.48900	0.02065	-0.44645	12.16770	0.05659
4.48900	0.02081	0.06845	12.26770	0.05835
4.48900	0.02099	-0.24705	12.36771	0.05202
4.48900	0.02117	0.43355	12.46771	0.06313
4.48900	0.02132	-0.16295	12.56772	0.05895
4.48900	0.02146	0.05335	12.66772	0.06032
4.48900	0.02168	-0.02275	12.76773	0.05974
4.48900	0.02182	0.86525	12.86774	0.08193
4.48900	0.02202	-0.11455	12.96774	0.07899
4.48900	0.02222	0.00915	13.06775	0.07922
4.48900	0.02240	-0.12015	13.16775	0.07614
4.48900	0.02254	1.08535	13.26776	0.10397
4.48900	0.02273	-0.15725	13.36776	0.09994
4.48900	0.02289	-0.03095	13.46777	0.09915
4.48900	0.02302	-1.08815	13.56778	0.07125
4.48900	0.02323	0.03825	13.66778	0.07223
4.48900	0.02336	-0.08575	13.76779	0.07003
4.48900	0.02358	0.04965	13.86779	0.07130
4.48900	0.02376	-0.97705	13.96780	0.04625
4.48900	0.02394	0.44045	14.06780	0.05754
4.48900	0.02409	-0.02985	14.16781	0.05678
4.48900	0.02425	0.09255	14.26782	0.05915
4.48900	0.02444	-0.18695	14.36782	0.05436
4.48900	0.02457	0.12345	14.46783	0.05752
4.48900	0.02479	-0.20425	14.56783	0.05228
4.48900	0.02492	0.25135	14.66784	0.05873
4.48900	0.02515	-0.16115	14.76784	0.05460
4.48900	0.02532	0.47865	14.86785	0.06687
4.48900	0.02550	-0.09175	14.96786	0.06452
4.48900	0.02569	0.05225	15.06786	0.06586
4.48900	0.02585	-0.21125	15.16787	0.06044
4.48900	0.02602	0.00175	15.26787	0.06049
4.48900	0.02615	-0.21515	15.36788	0.05497
4.48900	0.02642	0.54855	15.46789	0.06904
4.48900	0.02654	-0.04955	15.56789	0.06777
4.48900	0.02673	0.20195	15.66790	0.07294
4.48900	0.02688	-1.06935	15.76790	0.04552
4.48900	0.02705	0.06065	15.86791	0.04708
4.48900	0.02724	-0.15915	15.96791	0.04300
4.48900	0.02736	0.08785	16.06792	0.04525
4.48900	0.02757	-0.02935	16.16792	0.04450
4.48900	0.02769	0.65885	16.26793	0.06139
4.48900	0.02790	-0.06635	16.36794	0.05969
4.48900	0.02809	0.20375	16.46794	0.06492
4.48900	0.02829	-0.12475	16.56795	0.06172
4.48900	0.02843	0.02695	16.66795	0.06241
4.48900	0.02862	-0.57295	16.76796	0.04772
4.48900	0.02882	0.91285	16.86796	0.07113
4.48900	0.02890	-0.07185	16.96797	0.06928
4.48900	0.02914	0.19145	17.06798	0.07419
4.48900	0.02929	-0.09375	17.16798	0.07179
4.48900	0.02948	0.10885	17.26799	0.07458
4.48900	0.02969	-0.12225	17.36799	0.07145
4.48900	0.02984	0.04845	17.46800	0.07269
4.48900	0.03002	-0.43105	17.56801	0.06163
4.48900	0.03014	0.04475	17.66801	0.06278
4.48900	0.03036	-0.13135	17.76802	0.05941
4.48900	0.03051	1.45925	17.86802	0.09683
4.48900	0.03070	0.00255	17.96803	0.09690
4.48900	0.03088	0.15105	18.06803	0.10077
4.48900	0.03104	-0.01295	18.16804	0.10044
4.48900	0.03120	0.98575	18.26804	0.12572
4.48900	0.03133	-0.03685	18.36805	0.12477
4.48900	0.03154	0.06185	18.46806	0.12636
4.48900	0.03167	-0.17125	18.56806	0.12197
4.48900	0.03188	0.96775	18.66807	0.14678
4.48900	0.03206	-0.10635	18.76807	0.14406
4.48900	0.03222	-0.00835	18.86808	0.14384
4.48900	0.03239	-0.70185	18.96809	0.12584
4.48900	0.03260	0.11255	19.06809	0.12873
4.48900	0.03274	-0.04195	19.16810	0.12766
4.48900	0.03293	0.07695	19.26810	0.12963
4.48900	0.03314	-0.48375	19.36811	0.11722
4.48900	0.03329	0.20055	19.46811	0.12237
4.48900	0.03351	-0.14385	19.56812	0.11868
4.48900	0.03367	0.11025	19.66813	0.12151
4.48900	0.03384	-0.18115	19.76813	0.11686
4.48900	0.03405	-0.01185	19.86814	0.11656
4.48900	0.03419	-0.10275	19.96814	0.11392
4.48800	0.03436	0.28325	20.06815	0.12119
4.48800	0.03452	-0.12545	20.16815	0.11797
4.48900	0.03472	0.56975	20.26816	0.13258
4.48900	0.03486	-0.01065	20.36817	0.13231
4.48900	0.03505	-0.02685	20.46817	0.13162
4.48900	0.03521	-0.18715	20.56818	0.12682
4.48900	0.03540	0.13065	20.66818	0.13017
4.48900	0.03557	-0.50905	20.76819	0.11712
4.48900	0.03575	0.07465	20.86819	0.11903
4.48900	0.03593	-0.03965	20.96720	0.11802
4.48900	0.03604	0.27995	21.06720	0.12520
4.48900	0.03628	-1.07765	21.16721	0.09757
4.48800	0.03640	-0.03325	21.26722	0.09672
4.48800	0.03663	-0.28455	21.36722	0.08942
4.48900	0.03680	0.20585	21.46723	0.09470
4.48900	0.03699	-0.01285	21.56723	0.09437
4.48900	0.03715	0.09725	21.66724	0.09686
4.48900	0.03731	-0.17225	21.76725	0.09245
4.48900	0.03749	0.52105	21.86725	0.10581
4.48900	0.03762	0.01085	21.96726	0.10609
4.48900	0.03783	0.19805	22.06726	0.11116
4.48900	0.03795	-0.21405	22.16727	0.10568
4.48900	0.03817	0.13695	22.26727	0.10919
4.48900	0.03835	-0.03585	22.36728	0.10827
4.48900	0.03853	0.11035	22.46729	0.11110
4.48900	0.03868	-1.06235	22.56729	0.08386
4.48900	0.03887	0.01675	22.66730	0.08429
4.48800	0.03904	-0.00765	22.76730	0.08409
4.48800	0.03916	0.21965	22.86731	0.08972
4.48800	0.03936	-0.92035	22.96731	0.06612
4.48800	0.03946	-0.03305	23.06732	0.06528
4.48900	0.03972	-0.14625	23.16733	0.06153
4.48900	0.03989	0.94385	23.26733	0.08573
4.48800	0.04007	-0.15945	23.36734	0.08164
4.48800	0.04024	0.10595	23.46734	0.08436
4.48900	0.04043	-0.04465	23.56735	0.08321
4.48900	0.04059	1.08585	23.66735	0.11106
4.48800	0.04069	-0.49465	23.76736	0.09837
4.48900	0.04092	0.08525	23.86737	0.10056
4.48900	0.04109	-0.16125	23.96737	0.09642
4.48900	0.04126	0.27555	24.06738	0.10349
4.48900	0.04148	-0.47325	24.16738	0.09135
4.48900	0.04162	0.06465	24.26739	0.09301
4.48900	0.04178	-0.36355	24.36739	0.08369
4.48900	0.04196	0.12795	24.46740	0.08697
4.48800	0.04214	-0.69505	24.56741	0.06915
4.48900	0.04231	0.26995	24.66741	0.07607
4.48900	0.04249	-0.14095	24.76742	0.07246
4.48900	0.04270	0.24065	24.86742	0.07863
4.48900	0.04279	-0.21245	24.96743	0.07318
4.48900	0.04299	0.58475	25.06743	0.08817
4.48800	0.04314	-1.09265	25.16744	0.06016
4.48900	0.04335	0.07265	25.26745	0.06202
4.48900	0.04354	-0.30915	25.36745	0.05409
4.48900	0.04371	1.03745	25.46746	0.08069
4.48800	0.04385	-0.10685	25.56746	0.07795
4.48800	0.04406	0.24965	25.66747	0.08436
4.48800	0.04424	-0.21985	25.76747	0.07872
4.48800	0.04437	0.05325	25.86748	0.08008
4.48800	0.04456	-0.09005	25.96749	0.07778
4.48900	0.04473	0.15225	26.06749	0.08168
4.48900	0.04488	-0.71685	26.16750	0.06330
4.48900	0.04507	0.01275	26.26750	0.06363
4.48800	0.04526	-0.23165	26.36751	0.05769
4.48800	0.04544	0.61035	26.46751	0.07334
4.48900	0.04559	-0.35615	26.56752	0.06420
4.48900	0.04577	0.03515	26.66753	0.06511
4.48900	0.04590	-0.09515	26.76753	0.06267
4.48800	0.04613	1.07155	26.86754	0.09014
4.48800	0.04622	-0.10395	26.96754	0.08748
4.48800	0.04647	0.03885	27.06755	0.08847
4.48800	0.04665	-0.20865	27.16755	0.08312
4.48800	0.04682	0.76045	27.26756	0.10262
4.48800	0.04700	-0.03625	27.36757	0.10169
4.48800	0.04717	0.05705	27.46757	0.10316
4.48800	0.04734	-0.90375	27.56758	0.07998
4.48800	0.04747	0.17375	27.66758	0.08444
4.48800	0.04768	-0.12255	27.76759	0.08130
4.48800	0.04780	-0.05785	27.86759	0.07981
4.48800	0.04802	-1.10215	27.96760	0.05155
4.48800	0.04820	0.63465	28.06761	0.06782
4.48900	0.04835	-0.32485	28.16761	0.05950
4.48800	0.04851	0.03025	28.26762	0.06027
4.48900	0.04871	-0.32505	28.36762	0.05194
4.48800	0.04888	0.20505	28.46763	0.05719
4.48900	0.04902	-0.07025	28.56763	0.05539
4.48800	0.04922	-0.04525	28.66764	0.05423
4.48800	0.04935	-0.17995	28.76765	0.04962
4.48800	0.04957	0.20805	28.86765	0.05495
4.48800	0.04974	-0.18845	28.96766	0.05012
4.48800	0.04993	-0.01515	29.06766	0.04973
4.48800	0.05009	-1.09075	29.16767	0.02176
4.48800	0.05025	0.05175	29.26767	0.02309
4.48800	0.05043	-0.34055	29.36768	0.01436
4.48800	0.05054	1.07375	29.46769	0.04189
4.48800	0.05079	-0.13905	29.56769	0.03833
4.48800	0.05092	0.25405	29.66770	0.04484
4.48800	0.05112	-1.14735	29.76770	0.01542
4.48800	0.05129	0.01305	29.86771	0.01575
4.48800	0.05146	-1.05735	29.96771	-0.01136
4.48800	0.05165	0.07915	30.06772	-0.00933
4.48800	0.05182	-0.02935	30.16773	-0.01008
4.48800	0.05199	1.07865	30.26773	0.01758
4.48800	0.05212	-0.07665	30.36774	0.01561
4.48800	0.05233	0.27015	30.46774	0.02254
4.48800	0.05251	-0.17645	30.56775	0.01802
4.48800	0.05267	0.06385	30.66775	0.01965
4.48800	0.05287	-0.84325	30.76776	-0.00197
4.48800	0.05302	0.04905	30.86777	-0.00071
4.48800	0.05319	-0.14425	30.96777	-0.00441
4.48800	0.05338	0.32905	31.06778	0.00403
4.48800	0.05355	-0.18205	31.16778	-0.00064
4.48800	0.05368	0.13045	31.26779	0.00270
4.48800	0.05390	-0.14455	31.36779	-0.00100
4.48800	0.05402	0.24525	31.46780	0.00529
4.48800	0.05424	-0.75415	31.56781	-0.01405
4.48800	0.05441	0.07635	31.66781	-0.01209
4.48800	0.05458	-0.19225	31.76782	-0.01702
4.48800	0.05476	0.79035	31.86782	0.00324
4.48800	0.05493	-0.09615	31.96783	0.00078
4.48800	0.05509	0.15335	32.06783	0.00471
4.48800	0.05523	-0.06455	32.16784	0.00306
4.48800	0.05545	1.09455	32.26785	0.03112
4.48800	0.05556	-0.06355	32.36785	0.02949
4.48800	0.05578	0.09255	32.46786	0.03187
4.48800	0.05595	-0.20015	32.56786	0.02673
4.48800	0.05612	0.72775	32.66787	0.04540
4.48800	0.05629	-0.19605	32.76787	0.04037
4.48800	0.05646	0.06165	32.86788	0.04195
4.48800	0.05663	-1.09155	32.96789	0.01396
4.48800	0.05676	0.11155	33.06789	0.01682
4.48800	0.05697	-4.55446E-5	33.16790	0.01682
4.48800	0.05712	0.18185	33.26790	0.02148
4.48800	0.05732	-0.36955	33.36791	0.01201
4.48800	0.05751	0.11975	33.46791	0.01508
4.48800	0.05768	-0.08355	33.56792	0.01293
4.48800	0.05788	0.17935	33.66793	0.01753
4.48800	0.05803	-0.00245	33.76793	0.01747
4.48800	0.05819	0.25795	33.86794	0.02409
4.48700	0.05833	-0.16835	33.96794	0.01977
4.48700	0.05856	0.71665	34.06795	0.03815
4.48800	0.05867	-0.29185	34.16795	0.03066
4.48800	0.05889	0.06775	34.26796	0.03240
4.48800	0.05906	-0.12555	34.36797	0.02918
4.48700	0.05926	0.95065	34.46797	0.05356
4.48700	0.05937	-0.88605	34.56798	0.03084
4.48700	0.05955	0.29325	34.66798	0.03836
4.48700	0.05973	-0.14985	34.76799	0.03451
4.48700	0.05988	0.33445	34.86799	0.04309
4.48700	0.06009	-0.27255	34.96800	0.03610
4.48700	0.06021	0.05235	35.06801	0.03744
4.48700	0.06044	-0.57845	35.16801	0.02261
4.48700	0.06061	0.21175	35.26802	0.02804
4.48700	0.06080	-0.89085	35.36802	0.00520
4.48700	0.06095	0.28195	35.46803	0.01243
4.48700	0.06114	-0.18815	35.56803	0.00760
4.48700	0.06129	0.35715	35.66804	0.01676
4.48700	0.06143	-0.26295	35.76805	0.01002
4.48700	0.06163	0.75365	35.86805	0.02934
4.48700	0.06180	-0.09745	35.96806	0.02685
4.48700	0.06198	0.11825	36.06806	0.02988
4.48700	0.06218	-0.42145	36.16807	0.01907
4.48700	0.06234	0.87345	36.26807	0.04147
4.48700	0.06254	-0.16205	36.36808	0.03731
4.48700	0.06268	0.38835	36.46809	0.04727
4.48700	0.06286	-0.39835	36.56809	0.03706
4.48700	0.06300	0.18105	36.66810	0.04170
4.48700	0.06322	-0.00545	36.76810	0.04156
4.48700	0.06334	0.25425	36.86811	0.04808
4.48700	0.06358	-0.85325	36.96811	0.02620
4.48700	0.06373	0.08165	37.06812	0.02829
4.48700	0.06389	-0.24235	37.16813	0.02208
4.48700	0.06407	0.91025	37.26813	0.04542
4.48700	0.06424	-0.32235	37.36814	0.03716
4.48700	0.06441	0.12725	37.46814	0.04042
4.48700	0.06453	-0.04305	37.56815	0.03931
4.48700	0.06475	0.22785	37.66815	0.04516
4.48700	0.06489	-0.17955	37.76816	0.04055
4.48700	0.06509	0.07635	37.86817	0.04251
4.48700	0.06528	-0.20035	37.96817	0.03737
4.48700	0.06545	0.01075	38.06818	0.03765
4.48700	0.06562	0.12545	38.16818	0.04087
4.48700	0.06578	0.22605	38.26819	0.04666
4.48700	0.06593	-0.58615	38.36819	0.03163
4.48700	0.06606	0.30865	38.46720	0.03947
4.48700	0.06629	-0.12845	38.56721	0.03618
4.48800	0.06646	0.28005	38.66721	0.04336
4.48800	0.06663	-0.97835	38.76722	0.01827
4.48800	0.06680	0.37235	38.86722	0.02782
4.48800	0.06697	-0.29295	38.96723	0.02031
4.48800	0.06715	0.15085	39.06723	0.02417
4.48800	0.06732	-0.48425	39.16724	0.01176
4.48800	0.06750	0.23805	39.26725	0.01786
4.48800	0.06763	-0.17755	39.36725	0.01331
4.48700	0.06783	0.48595	39.46726	0.02577
4.48800	0.06799	-0.33545	39.56726	0.01717
4.48800	0.06818	1.01145	39.66727	0.04310
4.48800	0.06836	-0.07515	39.76727	0.04118
4.48800	0.06852	0.15935	39.86728	0.04526
4.48800	0.06870	-0.40065	39.96729	0.03499
4.48800	0.06889	0.28845	40.06729	0.04239
4.48800	0.06904	-0.92465	40.16730	0.01868
4.48800	0.06918	0.09305	40.26730	0.02106
4.48800	0.06941	-0.15745	40.36731	0.01702
4.48800	0.06958	0.47045	40.46731	0.02909
4.48800	0.06975	-0.78925	40.56732	0.00885
4.48800	0.06994	0.17435	40.66733	0.01332
4.48800	0.07013	-0.38775	40.76733	0.00338
4.48800	0.07029	0.25905	40.86734	0.01002
4.48800	0.07047	-0.03725	40.96734	0.00907
4.48800	0.07062	1.09695	41.06735	0.03719
4.48800	0.07075	-0.14105	41.16735	0.03358
4.48800	0.07097	0.42925	41.26736	0.04459
4.48800	0.07111	-0.27865	41.36737	0.03744
4.48800	0.07131	0.03145	41.46737	0.03825
4.48800	0.07149	-1.20565	41.56738	0.00733
4.48800	0.07166	0.00665	41.66738	0.00750
4.48800	0.07183	-0.25205	41.76739	0.00104
4.48800	0.07200	0.44065	41.86739	0.01234
4.48800	0.07216	-0.28095	41.96740	0.00513
4.48800	0.07230	0.16575	42.06741	0.00938
4.48800	0.07257	-0.06585	42.16741	0.00770
4.48800	0.07266	0.29035	42.26742	0.01514
4.48800	0.07287	-0.96255	42.36742	-0.00954
4.48800	0.07304	0.10615	42.46743	-0.00682
4.48800	0.07320	-0.28745	42.56743	-0.01419
4.48800	0.07338	1.01885	42.66744	0.01194
4.48800	0.07353	-0.03215	42.76745	0.01111
4.48800	0.07371	0.26175	42.86745	0.01782
4.48800	0.07384	-0.07315	42.96746	0.01595
4.48800	0.07406	0.31185	43.06746	0.02394
4.48800	0.07419	-0.10425	43.16747	0.02127
4.48800	0.07442	0.10675	43.26747	0.02401
4.48800	0.07458	-0.30475	43.36748	0.01619
4.48900	0.07475	0.02945	43.46749	0.01695
4.48900	0.07494	-0.43625	43.56749	0.00576
4.48900	0.07510	0.18685	43.66750	0.01056
4.48900	0.07527	-0.42745	43.76750	-0.00041
4.48800	0.07539	0.10685	43.86751	0.00233
4.48800	0.07560	-0.19245	43.96751	-0.00260
4.48900	0.07574	0.09195	44.06752	-0.00024
4.48800	0.07596	-0.71925	44.16753	-0.01869
4.48900	0.07614	1.11815	44.26753	0.00999
4.48900	0.07631	-0.49075	44.36754	-0.00260
4.48800	0.07648	0.12235	44.46754	0.00054
4.48800	0.07664	-0.46655	44.56755	-0.01142
4.48800	0.07683	0.37885	44.66755	-0.00171
4.48800	0.07693	-0.05845	44.76756	-0.00321
4.48800	0.07718	0.31925	44.86757	0.00498
4.48800	0.07731	-0.13485	44.96757	0.00152
4.48800	0.07751	0.53375	45.06758	0.01521
4.48900	0.07769	-0.32155	45.16758	0.00696
4.48800	0.07785	0.20375	45.26759	0.01219
4.48800	0.07801	-0.45555	45.36760	0.00051
4.48800	0.07821	0.33905	45.46760	0.00920
4.48900	0.07839	-1.06435	45.56761	-0.01809
4.48900	0.07851	0.13185	45.66761	-0.01471
4.48800	0.07872	-0.20525	45.76762	-0.01997
4.48800	0.07885	0.51255	45.86762	-0.00683
4.48900	0.07907	-0.02325	45.96763	-0.00743
4.48800	0.07924	0.20615	46.06764	-0.00214
4.48800	0.07942	-0.46645	46.16764	-0.01410
4.48800	0.07962	0.35225	46.26765	-0.00507
4.48900	0.07977	-0.30405	46.36765	-0.01286
4.48800	0.07993	0.11485	46.46766	-0.00992
4.48800	0.08006	-0.27455	46.56766	-0.01696
4.48800	0.08028	0.54395	46.66767	-0.00301
4.48800	0.08042	-0.30615	46.76767	-0.01086
4.48900	0.08064	0.21335	46.86768	-0.00539
4.48900	0.08080	-0.41605	46.96769	-0.01606
4.48900	0.08098	0.34605	47.06769	-0.00719
4.48900	0.08115	-0.04215	47.16770	-0.00827
4.48900	0.08135	1.03055	47.26770	0.01816
4.48900	0.08151	-1.04505	47.36771	-0.00864
4.48900	0.08162	0.36815	47.46772	0.00080
4.48800	0.08183	-0.17995	47.56772	-0.00381
4.48800	0.08196	0.12785	47.66773	-0.00053
4.48800	0.08217	-0.93755	47.76773	-0.02457
4.48800	0.08237	0.12325	47.86774	-0.02141
4.48900	0.08253	-0.30045	47.96774	-0.02912
4.48900	0.08271	1.09595	48.06775	-0.00101
4.48900	0.08288	-0.52075	48.16776	-0.01437
4.48900	0.08304	0.38855	48.26776	-0.00440
4.48900	0.08315	-0.08385	48.36777	-0.00655
4.48900	0.08336	0.35395	48.46777	0.00252
4.48900	0.08355	-0.19195	48.56778	-0.00240
4.48800	0.08373	0.17965	48.66778	0.00221
4.48900	0.08389	-0.35855	48.76779	-0.00699
4.48900	0.08407	-0.06225	48.86779	-0.00858
4.48900	0.08424	-0.06245	48.96780	-0.01018
4.48900	0.08442	0.23715	49.06781	-0.00410
4.48900	0.08457	-0.33795	49.16781	-0.01277
4.48900	0.08471	0.44785	49.26782	-0.00129
4.48900	0.08492	-0.11695	49.36782	-0.00428
4.48900	0.08507	0.16275	49.46783	-0.00011
4.48900	0.08528	-0.67905	49.56784	-0.01752
4.48800	0.08547	0.52145	49.66784	-0.00415
4.48800	0.08562	-0.39095	49.76785	-0.01418
4.48900	0.08579	0.20865	49.86785	-0.00883
4.48900	0.08595	-0.60535	49.96786	-0.02435
4.48900	0.08613	0.33835	50.06786	-0.01567
4.48900	0.08626	-0.19615	50.16787	-0.02070
4.48900	0.08647	0.85185	50.26788	0.00114
4.48900	0.08662	-0.32565	50.36788	-0.00721
4.48900	0.08683	0.58725	50.46789	0.00785
4.48800	0.08700	-0.43635	50.56789	-0.00334
4.48900	0.08720	-0.00345	50.66790	-0.00343
4.48900	0.08735	-0.52765	50.76790	-0.01696
4.48900	0.08754	0.33735	50.86791	-0.00831
4.48800	0.08769	-1.18975	50.96792	-0.03882
4.48900	0.08783	-0.07125	51.06792	-0.04064
4.48900	0.08806	-0.26415	51.16793	-0.04742
4.48900	0.08817	0.58425	51.26793	-0.03243
4.48900	0.08839	-0.56155	51.36794	-0.04683
4.48900	0.08857	0.23765	51.46794	-0.04074
4.48900	0.08874	-0.53525	51.56795	-0.05446
4.48900	0.08893	0.40315	51.66796	-0.04413
4.48900	0.08908	-0.18395	51.76796	-0.04884
4.48900	0.08925	0.12335	51.86797	-0.04568
4.48900	0.08937	-0.37145	51.96797	-0.05520
4.48900	0.08960	1.08455	52.06798	-0.02739
4.48900	0.08972	-0.40415	52.16798	-0.03776
4.48900	0.08991	0.31815	52.26799	-0.02960
4.48900	0.09012	-1.12945	52.36800	-0.05856
4.48900	0.09027	-0.01245	52.46800	-0.05888
4.48900	0.09046	-0.31435	52.56801	-0.06694
4.48900	0.09064	0.12745	52.66801	-0.06367
4.48900	0.09080	-0.53945	52.76802	-0.07750
4.48900	0.09092	0.19865	52.86802	-0.07241
4.48900	0.09111	-0.20025	52.96803	-0.07755
4.48900	0.09127	0.40575	53.06804	-0.06714
4.48900	0.09147	0.05655	53.16804	-0.06569
4.48900	0.09164	0.08755	53.26805	-0.06345
4.48900	0.09183	-0.21505	53.36805	-0.06896
4.48900	0.09198	0.25905	53.46806	-0.06232
4.48900	0.09218	-0.46015	53.56806	-0.07412
4.48900	0.09233	0.18625	53.66807	-0.06934
4.48900	0.09243	-0.10275	53.76808	-0.07198
4.48900	0.09268	0.59295	53.86808	-0.05677
4.48900	0.09282	-1.10295	53.96809	-0.08505
4.48900	0.09303	0.07295	54.06809	-0.08318
4.48900	0.09321	-0.33875	54.16810	-0.09187
4.48900	0.09338	0.63305	54.26810	-0.07564
4.48900	0.09354	-0.39765	54.36811	-0.08583
4.48900	0.09371	0.07455	54.46812	-0.08392
4.48900	0.09390	-0.00195	54.56812	-0.08397
4.48900	0.09402	0.19865	54.66813	-0.07888
4.48900	0.09423	-0.49345	54.76813	-0.09153
4.48900	0.09439	0.33745	54.86814	-0.08288
4.48900	0.09456	-0.09755	54.96814	-0.08538
4.48900	0.09476	0.87765	55.06815	-0.06287
4.48900	0.09492	-0.24495	55.16816	-0.06915
4.48900	0.09507	0.66595	55.26816	-0.05208
4.48900	0.09527	-0.07655	55.36817	-0.05404
4.48900	0.09544	0.24325	55.46817	-0.04780
4.48900	0.09557	-0.57075	55.56818	-0.06244
4.48900	0.09578	0.77305	55.66818	-0.04261
4.48900	0.09595	-0.04835	55.76819	-0.04385
4.48900	0.09613	0.98175	55.86720	-0.01893
4.48900	0.09632	-0.09385	55.96720	-0.02134
4.48900	0.09649	0.36645	56.06721	-0.01194
4.48900	0.09666	-0.64995	56.16721	-0.02861
4.48900	0.09685	0.44635	56.26722	-0.01716
4.48900	0.09701	-1.05495	56.36722	-0.04421
4.48900	0.09715	0.10605	56.46723	-0.04149
4.48900	0.09735	-0.37725	56.56724	-0.05117
4.48900	0.09747	0.66835	56.66724	-0.03403
4.48900	0.09769	-0.38995	56.76725	-0.04403
4.48900	0.09785	0.28205	56.86725	-0.03679
4.48900	0.09804	-0.51085	56.96726	-0.04989
4.48900	0.09823	0.48275	57.06726	-0.03751
4.48900	0.09839	-0.24035	57.16727	-0.04368
4.48900	0.09858	0.17935	57.26728	-0.03908
4.48900	0.09870	-0.37455	57.36728	-0.04868
4.48900	0.09891	0.71585	57.46729	-0.03033
4.48900	0.09902	-0.31835	57.56729	-0.03849
4.48900	0.09924	0.25015	57.66730	-0.03208
4.48900	0.09942	-0.70125	57.76730	-0.05006
4.48900	0.09959	0.51665	57.86731	-0.03681
4.48900	0.09976	-0.20785	57.96732	-0.04214
4.48900	0.09994	0.17465	58.06732	-0.03766
4.48900	0.10010	-0.45385	58.16733	-0.04930
4.48900	0.10024	0.20445	58.26733	-0.04405
4.48900	0.10045	-0.19835	58.36734	-0.04914
4.48900	0.10058	0.41675	58.46734	-0.03845
4.48900	0.10079	-0.09665	58.56735	-0.04093
4.48900	0.10098	0.63125	58.66736	-0.02475
4.48900	0.10115	-0.25145	58.76736	-0.03119
4.48900	0.10132	0.00685	58.86737	-0.03102
4.48900	0.10149	-0.50735	58.96737	-0.04403
4.48900	0.10166	0.27175	59.06738	-0.03706
4.48900	0.10177	-0.18605	59.16738	-0.04183
4.48900	0.10200	0.45595	59.26739	-0.03014
4.48900	0.10212	-0.96905	59.36740	-0.05499
4.48900	0.10234	0.14295	59.46740	-0.05132
4.48900	0.10251	-0.34245	59.56741	-0.06010
4.48900	0.10268	0.82685	59.66741	-0.03890
4.48900	0.10286	-0.52685	59.76742	-0.05241
4.48900	0.10304	0.06035	59.86742	-0.05086
4.48900	0.10323	-0.00435	59.96743	-0.05097
4.48900	0.10333	0.10045	60.06744	-0.04840
4.48900	0.10355	-0.68675	60.16744	-0.06601
4.48900	0.10369	0.40655	60.26745	-0.05558
4.48900	0.10391	0.03115	60.36745	-0.05478
4.48900	0.10408	0.93325	60.46746	-0.03085
4.48900	0.10426	-0.09055	60.56746	-0.03317
4.48900	0.10443	0.42765	60.66747	-0.02221
4.48900	0.10459	-0.77155	60.76748	-0.04199
4.48900	0.10476	0.57025	60.86748	-0.02737
4.48900	0.10489	-0.09955	60.96749	-0.02992
4.48900	0.10512	0.02715	61.06749	-0.02923
4.48900	0.10526	-0.15425	61.16750	-0.03318
4.48900	0.10545	0.79645	61.26750	-0.01276
4.48900	0.10563	-0.54445	61.36751	-0.02672
4.48900	0.10581	0.30795	61.46752	-0.01882
4.48900	0.10597	-0.75845	61.56752	-0.03827
4.48900	0.10614	0.56795	61.66753	-0.02371
4.48900	0.10631	-0.76735	61.76753	-0.04338
4.48900	0.10645	0.75395	61.86754	-0.02405
4.48900	0.10666	-0.22075	61.96754	-0.02971
4.48900	0.10679	1.09165	62.06755	-0.00172
4.48900	0.10700	-0.16735	62.16756	-0.00601
4.48900	0.10718	0.35385	62.26756	0.00307
4.48900	0.10735	-0.78685	62.36757	-0.01711
4.48900	0.10752	0.55215	62.46757	-0.00295
4.48900	0.10768	-0.25615	62.56758	-0.00952
4.48900	0.10786	0.12825	62.66758	-0.00623
4.48900	0.10798	-0.50625	62.76759	-0.01921
4.48900	0.10820	0.72065	62.86760	-0.00073
4.48900	0.10833	-0.10875	62.96760	-0.00352
4.48900	0.10854	0.52735	63.06761	0.01000
4.48900	0.10871	-0.91245	63.16761	-0.01340
4.48900	0.10890	0.13695	63.26762	-0.00989
4.48900	0.10907	-0.29025	63.36762	-0.01733
4.48900	0.10924	0.18315	63.46763	-0.01263
4.48900	0.10940	-0.33965	63.56764	-0.02134
4.48900	0.10957	0.23985	63.66764	-0.01519
4.48900	0.10981	-0.17055	63.76765	-0.01956
4.48900	0.10988	0.53705	63.86765	-0.00579
4.48900	0.11012	0.05735	63.96766	-0.00432
4.48900	0.11029	0.14145	64.06766	-0.00069
4.48900	0.11045	-0.29495	64.16767	-0.00826
4.48900	0.11061	-0.01155	64.26768	-0.00855
4.48900	0.11078	-0.64795	64.36768	-0.02517
4.48900	0.11097	0.23945	64.46769	-0.01903
4.48900	0.11109	-0.39565	64.56769	-0.02917
4.48900	0.11130	0.26195	64.66770	-0.02246
4.48900	0.11142	-1.12605	64.76770	-0.05133
4.48900	0.11165	0.63335	64.86771	-0.03509
4.48900	0.11182	-0.36145	64.96772	-0.04436
4.48900	0.11195	0.64685	65.06772	-0.02777
4.48900	0.11216	-0.59635	65.16773	-0.04306
4.48900	0.11234	0.13705	65.26773	-0.03955
4.48900	0.11250	-0.61155	65.36774	-0.05523
4.48900	0.11263	0.27225	65.46774	-0.04825
4.48900	0.11286	-0.82385	65.56775	-0.06937
4.48900	0.11299	0.38875	65.66776	-0.05941
4.48800	0.11320	-0.17565	65.76776	-0.06391
4.48800	0.11338	0.58245	65.86777	-0.04897
4.48900	0.11355	-0.29595	65.96777	-0.05656
4.48900	0.11372	0.79445	66.06778	-0.03619
4.48900	0.11391	-0.80255	66.16778	-0.05677
4.48900	0.11405	0.08315	66.26779	-0.05464
4.48900	0.11424	-0.47975	66.36780	-0.06694
4.48900	0.11443	1.05285	66.46780	-0.03994
4.48900	0.11458	-0.72285	66.56781	-0.05848
4.48900	0.11475	0.78195	66.66781	-0.03843
4.48900	0.11492	-0.93985	66.76782	-0.06253
4.48900	0.11511	0.31005	66.86782	-0.05458
4.48900	0.11527	-0.88385	66.96783	-0.07724
4.48900	0.11545	0.49805	67.06784	-0.06447
4.48900	0.11563	-0.92855	67.16784	-0.08828
4.48900	0.11575	0.60125	67.26785	-0.07286
4.48900	0.11596	-0.27385	67.36785	-0.07988
4.48900	0.11613	0.96235	67.46786	-0.05521
4.48900	0.11632	-0.27095	67.56786	-0.06215
4.48900	0.11648	0.30955	67.66787	-0.05422
4.48900	0.11666	-0.90155	67.76788	-0.07733
4.48800	0.11682	0.61665	67.86788	-0.06152
4.48900	0.11700	-0.30665	67.96789	-0.06938
4.48900	0.11718	0.23165	68.06789	-0.06344
4.48900	0.11730	-0.64045	68.16790	-0.07987
4.48900	0.11752	0.85435	68.26790	-0.05796
4.48900	0.11763	-0.14255	68.36791	-0.06161
4.48900	0.11786	0.63755	68.46792	-0.04527
4.48800	0.11803	-0.95025	68.56792	-0.06963
4.48900	0.11820	0.65745	68.66793	-0.05277
4.48900	0.11837	-0.32565	68.76793	-0.06112
4.48900	0.11853	0.20465	68.86794	-0.05588
4.48900	0.11871	-0.58495	68.96795	-0.07088
4.48900	0.11886	0.28195	69.06795	-0.06365
4.48900	0.11905	-0.15565	69.16796	-0.06764
4.48900	0.11922	0.66315	69.26796	-0.05063
4.48900	0.11939	0.05585	69.36797	-0.04920
4.48900	0.11957	0.11825	69.46797	-0.04617
4.48900	0.11974	-0.45975	69.56798	-0.05796
4.48900	0.11994	0.01935	69.66798	-0.05746
4.48900	0.12010	-0.67975	69.76799	-0.07489
4.48900	0.12027	0.28735	69.86800	-0.06752
4.48900	0.12039	-0.16535	69.96800	-0.07176
4.48900	0.12060	0.17745	70.06801	-0.06721
4.48900	0.12078	-0.79015	70.16801	-0.08747
4.48900	0.12096	0.12395	70.26802	-0.08429
4.48900	0.12113	-0.46505	70.36802	-0.09622
4.48900	0.12131	0.86535	70.46803	-0.07403
4.48900	0.12148	-0.64805	70.56804	-0.09065
4.48900	0.12164	0.36055	70.66804	-0.08140
4.48900	0.12182	-1.02715	70.76805	-0.10774
4.48900	0.12197	0.67415	70.86805	-0.09045
4.48900	0.12218	-0.80795	70.96806	-0.11117
4.48900	0.12231	0.96445	71.06807	-0.08644
4.48900	0.12252	-0.33465	71.16807	-0.09502
4.48900	0.12270	1.00045	71.26808	-0.06937
4.48900	0.12282	-0.57435	71.36808	-0.08409
4.48900	0.12304	0.84085	71.46809	-0.06253
4.48900	0.12321	-0.12225	71.56809	-0.06567
4.48900	0.12338	0.42665	71.66810	-0.05473
4.48900	0.12352	-1.01335	71.76811	-0.08071
4.48900	0.12373	-0.00665	71.86811	-0.08088
4.48900	0.12386	-0.45375	71.96812	-0.09252
4.48900	0.12407	0.97955	72.06812	-0.06740
4.48900	0.12426	-0.67775	72.16813	-0.08478
4.48900	0.12442	0.32605	72.26813	-0.07642
4.48900	0.12458	-0.22755	72.36814	-0.08225
4.48900	0.12476	0.73915	72.46814	-0.06330
4.48900	0.12491	-0.74045	72.56815	-0.08229
4.48900	0.12508	0.21885	72.66816	-0.07667
4.48900	0.12527	-0.69645	72.76816	-0.09453
4.48900	0.12540	0.74785	72.86817	-0.07536
4.48900	0.12563	-0.22605	72.96817	-0.08115
4.48900	0.12581	0.52355	73.06818	-0.06773
4.48900	0.12597	-0.19415	73.16819	-0.07270
4.48900	0.12617	0.65755	73.26819	-0.05584
4.48900	0.12631	-0.32925	73.36720	-0.06420
4.48900	0.12650	0.23305	73.46720	-0.05823
4.48900	0.12663	-0.76955	73.56721	-0.07796
4.48900	0.12681	-0.04015	73.66721	-0.07899
4.48900	0.12696	-0.16125	73.76722	-0.08312
4.48900	0.12715	0.57635	73.86723	-0.06834
4.48900	0.12732	0.04695	73.96723	-0.06714
4.48900	0.12751	-0.00945	74.06724	-0.06738
4.48900	0.12767	-0.42155	74.16724	-0.07819
4.48900	0.12785	0.30215	74.26725	-0.07044
4.48900	0.12802	0.03835	74.36725	-0.06946
4.48900	0.12814	0.64415	74.46726	-0.05294
4.48900	0.12836	-1.13695	74.56727	-0.08210
4.48900	0.12848	0.42195	74.66727	-0.07128
4.48900	0.12870	-1.16405	74.76728	-0.10113
4.48900	0.12888	0.81525	74.86728	-0.08022
4.48900	0.12904	-0.13225	74.96729	-0.08361
4.48900	0.12922	0.01525	75.06729	-0.08322
4.48900	0.12936	-0.27485	75.16730	-0.09027
4.48900	0.12957	1.09165	75.26731	-0.06227
4.48900	0.12971	-0.62515	75.36731	-0.07831
4.48900	0.12991	0.17625	75.46732	-0.07379
4.48900	0.13004	-0.26385	75.56732	-0.08055
4.48900	0.13026	0.37655	75.66733	-0.07090
4.48900	0.13044	-1.08035	75.76733	-0.09860
4.48900	0.13061	0.05295	75.86734	-0.09724
4.48900	0.13078	-0.39155	75.96735	-0.10728
4.48900	0.13095	1.16395	76.06735	-0.07743
4.48900	0.13112	0.01165	76.16736	-0.07714
4.48900	0.13127	0.55585	76.26736	-0.06288
4.48900	0.13145	-1.11125	76.36737	-0.09138
4.48900	0.13164	0.76395	76.46737	-0.07179
4.48900	0.13184	-1.06315	76.56738	-0.09905
4.48900	0.13201	0.60315	76.66739	-0.08358
4.48900	0.13218	-0.21715	76.76739	-0.08915
4.48900	0.13234	0.36505	76.86740	-0.07979
4.48900	0.13248	-0.18415	76.96740	-0.08451
4.48900	0.13266	0.57935	77.06741	-0.06966
4.48900	0.13283	-1.12735	77.16741	-0.09856
4.48900	0.13302	0.04985	77.26742	-0.09728
4.48900	0.13316	-0.19045	77.36743	-0.10217
4.48800	0.13337	0.19495	77.46743	-0.09717
4.48900	0.13356	-0.41865	77.56744	-0.10790
4.48900	0.13370	0.25355	77.66744	-0.10140
4.48900	0.13388	-0.11005	77.76745	-0.10422
4.48900	0.13405	0.42085	77.86745	-0.09343
4.48900	0.13423	-1.10205	77.96746	-0.12169
4.48900	0.13435	0.80645	78.06747	-0.10101
4.48900	0.13457	-0.14945	78.16747	-0.10484
4.48900	0.13470	0.35605	78.26748	-0.09571
4.48900	0.13489	-0.22785	78.36748	-0.10156
4.48900	0.13510	0.60425	78.46749	-0.08606
4.48900	0.13526	-1.11205	78.56749	-0.11458
4.48900	0.13544	0.85665	78.66750	-0.09261
4.48900	0.13560	-0.45935	78.76751	-0.10439
4.48900	0.13578	0.25035	78.86751	-0.09797
4.48900	0.13592	-0.91995	78.96752	-0.12156
4.48900	0.13612	0.46815	79.06752	-0.10956
4.48900	0.13625	-0.24625	79.16753	-0.11587
4.48900	0.13647	0.84965	79.26753	-0.09408
4.48900	0.13666	-0.50505	79.36754	-0.10703
4.48900	0.13682	0.18985	79.46755	-0.10216
4.48900	0.13698	-0.62005	79.56755	-0.11806
4.48900	0.13718	0.27475	79.66756	-0.11102
4.48900	0.13733	-0.88395	79.76756	-0.13369
4.48900	0.13745	0.38125	79.86757	-0.12391
4.48900	0.13767	-0.31615	79.96757	-0.13202
4.48900	0.13782	0.96155	80.06758	-0.10736
4.48900	0.13802	0.02995	80.16759	-0.10659
4.48900	0.13821	1.11655	80.26759	-0.07796
4.48900	0.13838	-0.48865	80.36760	-0.09049
4.48900	0.13854	-0.16635	80.46760	-0.09476
4.48900	0.13870	-0.13405	80.56761	-0.09819
4.48900	0.13890	0.57785	80.66761	-0.08338
4.48900	0.13901	-0.24255	80.76762	-0.08959
4.48900	0.13923	0.03145	80.86763	-0.08879
4.48900	0.13938	-0.43475	80.96763	-0.09994
4.48900	0.13958	0.24625	81.06764	-0.09362
4.48900	0.13976	-0.58575	81.16764	-0.10864
4.48900	0.13993	1.03555	81.26765	-0.08209
4.48900	0.14011	-0.97075	81.36765	-0.10698
4.48900	0.14030	0.48485	81.46766	-0.09455
4.48900	0.14045	-0.90305	81.56767	-0.11770
4.48900	0.14059	0.89235	81.66767	-0.09482
4.48900	0.14078	-0.48835	81.76768	-0.10734
4.48900	0.14092	0.19805	81.86768	-0.10226
4.48900	0.14114	-0.69445	81.96769	-0.12007
4.48900	0.14131	1.07765	82.06769	-0.09244
4.48900	0.14150	-0.96035	82.16770	-0.11706
4.48900	0.14169	0.47065	82.26771	-0.10500
4.48900	0.14177	-0.32235	82.36771	-0.11326
4.48900	0.14199	0.73565	82.46772	-0.09440
4.48900	0.14215	-1.07275	82.56772	-0.12190
4.48900	0.14232	0.03795	82.66773	-0.12093
4.48900	0.14251	-0.99025	82.76773	-0.14632
4.48900	0.14270	0.36535	82.86774	-0.13696
4.48900	0.14286	-0.21065	82.96775	-0.14236
4.48900	0.14304	0.89285	83.06775	-0.11946
4.48900	0.14319	-1.04165	83.16776	-0.14617
4.48900	0.14334	0.99295	83.26776	-0.12071
4.48900	0.14353	-1.23285	83.36777	-0.15232
4.48900	0.14369	0.11185	83.46777	-0.14946
4.48900	0.14386	-0.47455	83.56778	-0.16162
4.48900	0.14404	1.03155	83.66779	-0.13517
4.48900	0.14424	0.00605	83.76779	-0.13502
4.48900	0.14440	0.48465	83.86780	-0.12259
4.48900	0.14458	-1.08845	83.96780	-0.15050
4.48900	0.14473	0.90225	84.06781	-0.12736
4.48900	0.14485	-0.23125	84.16781	-0.13329
4.48900	0.14509	-0.03945	84.26782	-0.13430
4.48900	0.14522	-0.52545	84.36783	-0.14778
4.48900	0.14546	1.04545	84.46783	-0.12097
4.48900	0.14562	-0.94135	84.56784	-0.14511
4.48900	0.14576	0.81615	84.66784	-0.12418
4.48900	0.14593	-0.35135	84.76785	-0.13319
4.48900	0.14614	0.19755	84.86785	-0.12812
4.48900	0.14629	-0.63735	84.96786	-0.14447
4.48900	0.14642	1.02165	85.06787	-0.11827
4.48900	0.14664	-1.07935	85.16787	-0.14595
4.48900	0.14676	0.50155	85.26788	-0.13309
4.48900	0.14699	-0.34235	85.36788	-0.14186
4.48900	0.14716	1.07445	85.46789	-0.11431
4.48900	0.14733	-0.35445	85.56789	-0.12340
4.48900	0.14750	0.32825	85.66790	-0.11498
4.48900	0.14768	-0.98255	85.76791	-0.14018
4.48900	0.14783	0.44495	85.86791	-0.12877
4.48900	0.14798	-0.20595	85.96792	-0.13405
4.48900	0.14818	0.73515	86.06792	-0.11520
4.48900	0.14830	-0.32925	86.16793	-0.12364
4.48900	0.14853	1.08685	86.26793	-0.09577
4.48900	0.14869	-0.59775	86.36794	-0.11110
4.48900	0.14888	0.35565	86.46795	-0.10198
4.48900	0.14903	-1.12925	86.56795	-0.13094
4.48900	0.14927	-0.04415	86.66796	-0.13207
4.48900	0.14940	-0.24915	86.76796	-0.13846
4.48900	0.14953	0.76045	86.86797	-0.11896
4.48900	0.14974	-0.00765	86.96797	-0.11915
4.48900	0.14987	1.08045	87.06798	-0.09145
4.48900	0.15008	-0.58775	87.16799	-0.10652
4.48900	0.15026	0.29595	87.26799	-0.09893
4.48900	0.15045	-0.00815	87.36800	-0.09914
4.48900	0.15062	0.99235	87.46800	-0.07369
4.48900	0.15078	-0.23195	87.56801	-0.07964
4.48900	0.15095	0.62425	87.66801	-0.06363
4.48900	0.15107	-0.98425	87.76802	-0.08887
4.48900	0.15127	1.02035	87.86803	-0.06271
4.48900	0.15147	-0.56385	87.96803	-0.07717
4.48900	0.15165	0.71015	88.06804	-0.05895
4.48900	0.15182	-1.11415	88.16804	-0.08752
4.48900	0.15199	0.98955	88.26805	-0.06215
4.48900	0.15215	-1.13085	88.36805	-0.09115
4.48900	0.15233	0.62975	88.46806	-0.07500
4.48900	0.15248	-0.93735	88.56807	-0.09903
4.48900	0.15263	1.16235	88.66807	-0.06923
4.48900	0.15283	-0.28195	88.76808	-0.07646
4.48900	0.15297	-0.01315	88.86808	-0.07680
4.48900	0.15320	-0.61245	88.96809	-0.09250
4.48900	0.15336	0.92185	89.06809	-0.06886
4.48900	0.15355	-0.01535	89.16810	-0.06926
4.48900	0.15370	0.52425	89.26811	-0.05581
4.48900	0.15387	-1.00165	89.36811	-0.08150
4.48900	0.15403	0.87145	89.46812	-0.05915
4.48900	0.15416	-0.27165	89.56812	-0.06612
4.48900	0.15439	0.03035	89.66813	-0.06534
4.48900	0.15451	-0.58925	89.76813	-0.08045
4.48900	0.15474	1.02005	89.86814	-0.05429
4.48900	0.15490	-1.06415	89.96815	-0.08158
4.48900	0.15508	0.26215	90.06815	-0.07486
4.48900	0.15524	-0.00455	90.16816	-0.07497
4.48900	0.15542	0.60565	90.26816	-0.05944
4.48900	0.15559	-0.26075	90.36817	-0.06613
4.48900	0.15572	0.00445	90.46817	-0.06601
4.48900	0.15595	-0.12685	90.56818	-0.06927
4.48900	0.15605	1.13815	90.66819	-0.04008
4.48900	0.15629	-0.86095	90.76819	-0.06216
4.48900	0.15646	0.28195	90.86720	-0.05500
4.48900	0.15663	0.00745	90.96720	-0.05481
4.48900	0.15683	0.37495	91.06721	-0.04519
4.48900	0.15698	-1.18305	91.16721	-0.07553
4.48900	0.15715	0.11405	91.26722	-0.07261
4.48900	0.15730	0.04725	91.36723	-0.07139
4.48900	0.15748	0.77495	91.46723	-0.05152
4.48900	0.15765	-0.32435	91.56724	-0.05984
4.48900	0.15782	1.15265	91.66724	-0.03028
4.48900	0.15804	-0.64915	91.76725	-0.04693
4.48900	0.15820	0.45585	91.86725	-0.03524
4.48900	0.15837	-1.02015	91.96726	-0.06140
4.48900	0.15852	-0.00785	92.06727	-0.06160
4.48900	0.15872	-0.84705	92.16727	-0.08332
4.48900	0.15885	0.76775	92.26728	-0.06363
4.48900	0.15906	0.02885	92.36728	-0.06289
4.48900	0.15922	1.06585	92.46729	-0.03556
4.48900	0.15941	-0.69515	92.56729	-0.05339
4.48900	0.15958	0.44265	92.66730	-0.04204
4.48900	0.15975	0.02215	92.76731	-0.04147
4.48900	0.15994	0.88985	92.86731	-0.01865
4.48900	0.16003	-1.10335	92.96732	-0.04694
4.48900	0.16030	0.33625	93.06732	-0.03832
4.48900	0.16042	0.05705	93.16733	-0.03686
4.48900	0.16059	0.68935	93.26733	-0.01918
4.48900	0.16078	-0.95115	93.36734	-0.04357
4.48900	0.16093	-0.00125	93.46735	-0.04360
4.48900	0.16111	-0.48205	93.56735	-0.05596
4.48900	0.16123	0.93045	93.66736	-0.03210
4.48900	0.16144	-1.08165	93.76736	-0.05984
4.48900	0.16163	0.03335	93.86737	-0.05898
4.48900	0.16180	0.01195	93.96737	-0.05868
4.48900	0.16199	0.34015	94.06738	-0.04996
4.48900	0.16215	-0.68755	94.16739	-0.06759
4.48900	0.16226	0.86465	94.26739	-0.04541
4.48900	0.16251	-0.98285	94.36740	-0.07062
4.48900	0.16268	0.76465	94.46740	-0.05101
4.48900	0.16280	-0.54065	94.56741	-0.06487
4.48900	0.16302	1.11145	94.66741	-0.03637
4.48800	0.16318	0.20035	94.76742	-0.03123
4.48900	0.16336	0.37235	94.86743	-0.02169
4.48900	0.16352	-1.04515	94.96743	-0.04849
4.48900	0.16370	0.82515	95.06744	-0.02733
4.48900	0.16388	-1.19255	95.16744	-0.05791
4.48900	0.16405	0.02735	95.26745	-0.05721
4.48900	0.16421	0.06315	95.36746	-0.05559
4.48900	0.16434	0.80815	95.46746	-0.03486
4.48900	0.16457	-0.75805	95.56747	-0.05430
4.48900	0.16467	0.03065	95.66747	-0.05352
4.48900	0.16489	-0.69945	95.76748	-0.07145
4.48900	0.16506	1.13245	95.86748	-0.04241
4.48900	0.16524	-1.04325	95.96749	-0.06916
4.48900	0.16542	0.81555	96.06749	-0.04825
4.48900	0.16560	-0.42215	96.16750	-0.05908
4.48900	0.16578	1.11905	96.26751	-0.03038
4.48900	0.16591	0.06345	96.36751	-0.02875
4.48900	0.16612	0.49395	96.46752	-0.01609
4.48900	0.16624	-0.99285	96.56752	-0.04155
4.48900	0.16648	-0.08055	96.66753	-0.04361
4.48900	0.16661	-0.73775	96.76754	-0.06253
4.48900	0.16683	0.84275	96.86754	-0.04092
4.48900	0.16698	-0.43745	96.96755	-0.05214
4.48900	0.16715	1.10845	97.06755	-0.02371
4.48900	0.16732	-0.63165	97.16756	-0.03991
4.48900	0.16746	0.54505	97.26756	-0.02593
4.48900	0.16769	-0.96215	97.36757	-0.05060
4.48900	0.16782	0.09935	97.46758	-0.04806
4.48900	0.16803	-0.77185	97.56758	-0.06785
4.48900	0.16820	0.66975	97.66759	-0.05067
4.48900	0.16837	0.02875	97.76759	-0.04994
4.48900	0.16851	1.03175	97.86760	-0.02348
4.48900	0.16870	-0.74275	97.96760	-0.04253
4.48900	0.16883	0.48515	98.06761	-0.03009
4.48900	0.16899	-0.00465	98.16761	-0.03020
4.48900	0.16922	0.03585	98.26762	-0.02929
4.48800	0.16936	-0.25165	98.36763	-0.03574
4.48900	0.16959	1.00575	98.46763	-0.00995
4.48900	0.16974	-0.72165	98.56764	-0.02845
4.48900	0.16990	1.10695	98.66764	-6.80041E-5
4.48900	0.17009	-0.73415	98.76765	-0.01889
4.48900	0.17026	0.52975	98.86766	-0.00531
4.48900	0.17044	-0.97595	98.96766	-0.03033
4.48900	0.17055	0.04535	99.06767	-0.02917
4.48900	0.17076	-0.76985	99.16767	-0.04891
4.48900	0.17090	0.88905	99.26768	-0.02611
4.48900	0.17112	-0.75335	99.36768	-0.04543
4.48900	0.17128	1.08215	99.46769	-0.01768
4.48900	0.17144	-0.68695	99.56770	-0.03530
4.48900	0.17163	0.01325	99.66770	-0.03496
4.48900	0.17180	-0.30165	99.76771	-0.04269
4.48900	0.17196	1.17925	99.86771	-0.01245
4.48900	0.17211	-0.37815	99.96772	-0.02215
4.48900	0.17232	0.95665	100.06772	0.00238
4.48900	0.17244	0.04295	100.16773	0.00348
4.48900	0.17266	0.82585	100.26774	0.02466
4.48900	0.17282	-0.80655	100.36774	0.00398
4.48900	0.17302	0.93265	100.46775	0.02789
4.48900	0.17319	-0.97405	100.56775	0.00292
4.48900	0.17339	0.81125	100.66776	0.02372
4.48900	0.17352	-0.26235	100.76776	0.01699
4.48900	0.17365	1.03055	100.86777	0.04342
4.48900	0.17387	-0.73505	100.96778	0.02457
4.48900	0.17398	0.06945	101.06778	0.02635
4.48900	0.17422	-0.80725	101.16779	0.00565
4.48900	0.17439	0.77735	101.26779	0.02558
4.48900	0.17457	-0.98435	101.36780	0.00034
4.48900	0.17473	0.91305	101.46780	0.02375
4.48900	0.17491	-0.51135	101.56781	0.01064
4.48900	0.17508	1.02465	101.66782	0.03692
4.48900	0.17521	0.06915	101.76782	0.03869
4.48900	0.17541	0.58715	101.86783	0.05375
4.48900	0.17556	-0.89975	101.96783	0.03067
4.48900	0.17577	0.04345	102.06784	0.03179
4.48900	0.17596	-0.34665	102.16784	0.02290
4.48900	0.17610	1.15615	102.26785	0.05255
4.48900	0.17630	-0.48685	102.36786	0.04006
4.48900	0.17645	0.04065	102.46786	0.04111
4.48900	0.17664	-0.57265	102.56787	0.02642
4.48900	0.17675	0.53985	102.66787	0.04026
4.48900	0.17696	-0.98625	102.76788	0.01497
4.48900	0.17709	-0.03065	102.86788	0.01419
4.48900	0.17731	-1.01685	102.96789	-0.01189
4.48900	0.17750	0.85015	103.06790	0.00991
4.48900	0.17765	0.06215	103.16790	0.01151
4.48900	0.17782	0.67875	103.26791	0.02891
4.48900	0.17800	-0.89065	103.36791	0.00607
4.48900	0.17817	0.43715	103.46792	0.01728
4.48900	0.17829	-0.96685	103.56792	-0.00751
4.48900	0.17852	0.79355	103.66793	0.01284
4.48900	0.17865	-0.27065	103.76794	0.00590
4.48900	0.17886	0.67775	103.86794	0.02328
4.48900	0.17903	-0.06865	103.96795	0.02152
4.48900	0.17921	0.30885	104.06795	0.02944
4.48900	0.17937	-1.12315	104.16796	0.00064
4.48900	0.17953	-0.01025	104.26796	0.00038
4.48900	0.17973	-0.90885	104.36797	-0.02293
4.48900	0.17986	0.83135	104.46798	-0.00161
4.48900	0.18005	-0.61325	104.56798	-0.01734
4.48900	0.18020	0.00325	104.66799	-0.01725
4.48900	0.18039	-0.02885	104.76799	-0.01799
4.48900	0.18059	0.21865	104.86800	-0.01238
4.48900	0.18077	-1.09945	104.96800	-0.04058
4.48900	0.18093	0.56715	105.06801	-0.02603
4.48900	0.18112	-0.84435	105.16802	-0.04769
4.48900	0.18126	0.94105	105.26802	-0.02355
4.48900	0.18141	-0.17585	105.36803	-0.02806
4.48900	0.18163	0.93665	105.46803	-0.00405
4.48900	0.18176	0.01345	105.56804	-0.00370
4.48900	0.18199	0.66835	105.66804	0.01344
4.48900	0.18215	-1.05865	105.76805	-0.01371
4.48900	0.18230	0.61405	105.86806	0.00204
4.48900	0.18249	-1.00085	105.96806	-0.02363
4.48800	0.18268	0.63575	106.06807	-0.00732
4.48900	0.18285	-0.01025	106.16807	-0.00759
4.48900	0.18294	0.95545	106.26808	0.01691
4.48900	0.18315	-0.62985	106.36808	0.00076
4.48900	0.18334	-0.03475	106.46809	-0.00013
4.48900	0.18351	-0.99105	106.56810	-0.02554
4.48900	0.18367	0.61635	106.66810	-0.00974
4.48900	0.18387	-0.97465	106.76811	-0.03473
4.48900	0.18406	0.94015	106.86811	-0.01062
4.48900	0.18415	-0.56685	106.96812	-0.02516
4.48900	0.18438	0.94095	107.06812	-0.00103
4.48900	0.18450	-0.01155	107.16813	-0.00132
4.48900	0.18471	0.62735	107.26814	0.01476
4.48900	0.18490	-0.89045	107.36814	-0.00807
4.48900	0.18508	0.01215	107.46815	-0.00776
4.48900	0.18524	-0.43055	107.56815	-0.01880
4.48900	0.18540	1.08055	107.66816	0.00891
4.48900	0.18558	-0.55835	107.76816	-0.00541
4.48900	0.18571	0.92635	107.86817	0.01835
4.48900	0.18591	-0.87595	107.96818	-0.00412
4.48900	0.18605	0.57645	108.06818	0.01067
4.48900	0.18624	-0.87035	108.16819	-0.01165
4.48900	0.18645	-0.05095	108.26819	-0.01296
4.48900	0.18661	-0.40015	108.36720	-0.02312
4.48900	0.18678	1.11255	108.46720	0.00541
4.48900	0.18696	0.01685	108.56721	0.00584
4.48900	0.18713	0.77895	108.66722	0.02582
4.48900	0.18727	-1.10295	108.76722	-0.00246
4.48900	0.18748	0.57305	108.86723	0.01223
4.48900	0.18761	-0.00205	108.96723	0.01218
4.48900	0.18781	0.54775	109.06724	0.02622
4.48900	0.18800	-0.84855	109.16724	0.00447
4.48900	0.18815	0.47335	109.26725	0.01660
4.48900	0.18833	0.05545	109.36726	0.01803
4.48900	0.18849	1.07985	109.46726	0.04572
4.48900	0.18871	-0.46505	109.56727	0.03379
4.48900	0.18882	0.83555	109.66727	0.05522
4.48900	0.18903	-1.13515	109.76728	0.02611
4.48900	0.18915	0.35935	109.86728	0.03532
4.48900	0.18934	-0.72945	109.96729	0.01662
4.48900	0.18953	1.13505	110.06730	0.04572
4.48900	0.18972	-0.41435	110.16730	0.03510
4.48900	0.18988	0.56495	110.26731	0.04959
4.48900	0.19006	-0.01595	110.36731	0.04918
4.48900	0.19021	-0.03845	110.46732	0.04819
4.48900	0.19036	-1.14515	110.56732	0.01883
4.48900	0.19056	0.44325	110.66733	0.03019
4.48900	0.19069	-0.00745	110.76734	0.03000
4.48900	0.19090	0.48675	110.86734	0.04248
4.48900	0.19107	-0.01105	110.96735	0.04220
4.48900	0.19127	0.47205	111.06735	0.05431
4.48900	0.19143	-0.96385	111.16736	0.02959
4.48900	0.19161	0.34965	111.26736	0.03856
4.48900	0.19179	-0.76985	111.36737	0.01882
4.48900	0.19191	-0.03485	111.46738	0.01792
4.48900	0.19212	-0.51055	111.56738	0.00483
4.48900	0.19226	0.93745	111.66739	0.02887
4.48900	0.19248	-0.41995	111.76739	0.01810
4.48900	0.19264	-0.04825	111.86740	0.01686
4.48900	0.19283	-0.53655	111.96740	0.00310
4.48900	0.19301	-0.02965	112.06741	0.00234
4.48900	0.19317	-1.12095	112.16742	-0.02640
4.48900	0.19334	0.30445	112.26742	-0.01859
4.48900	0.19346	0.00915	112.36743	-0.01836
4.48900	0.19370	0.49025	112.46743	-0.00579
4.48900	0.19382	-0.02285	112.56744	-0.00637
4.48900	0.19403	-0.02715	112.66744	-0.00707
4.48900	0.19421	-1.10165	112.76745	-0.03532
4.48900	0.19439	0.32785	112.86746	-0.02691
4.48900	0.19456	-0.01475	112.96746	-0.02729
4.48900	0.19473	1.09125	113.06747	0.00069
4.48900	0.19489	-0.49105	113.16747	-0.01190
4.48900	0.19505	0.81305	113.26748	0.00895
4.48900	0.19526	-0.60235	113.36748	-0.00649
4.48900	0.19536	-0.03435	113.46749	-0.00737
4.48900	0.19559	-1.16725	113.56750	-0.03731
4.48900	0.19577	0.41835	113.66750	-0.02658
4.48900	0.19594	-0.78485	113.76751	-0.04670
4.48900	0.19611	1.12135	113.86751	-0.01795
4.48900	0.19628	-0.40975	113.96752	-0.02846
4.48900	0.19646	0.74685	114.06752	-0.00930
4.48900	0.19657	-0.59155	114.16753	-0.02447
4.48900	0.19680	-0.04975	114.26754	-0.02575
4.48900	0.19693	-0.29945	114.36754	-0.03343
4.48900	0.19715	0.99105	114.46755	-0.00801
4.48900	0.19731	-0.84545	114.56755	-0.02969
4.48900	0.19750	0.67575	114.66756	-0.01237
4.48900	0.19768	-0.04235	114.76756	-0.01345
4.48900	0.19784	0.81495	114.86757	0.00745
4.48900	0.19798	-0.69095	114.96758	-0.01027
4.48900	0.19810	-0.02955	115.06758	-0.01103
4.48900	0.19835	-0.63895	115.16759	-0.02741
4.48900	0.19850	0.91135	115.26759	-0.00404
4.48900	0.19866	-0.79745	115.36760	-0.02449
4.48900	0.19884	-0.02685	115.46760	-0.02518
4.48900	0.19901	-0.98555	115.56761	-0.05045
4.48900	0.19919	0.70165	115.66762	-0.03246
4.48900	0.19930	-0.81325	115.76762	-0.05331
4.48900	0.19949	-0.03415	115.86763	-0.05419
4.48900	0.19967	-0.86755	115.96763	-0.07644
4.48900	0.19986	0.57055	116.06764	-0.06181
4.48900	0.20005	-0.03295	116.16764	-0.06265
4.48900	0.20022	0.20555	116.26765	-0.05738
4.48900	0.20038	-1.08045	116.36766	-0.08508
4.48900	0.20058	0.78185	116.46766	-0.06504
4.48800	0.20073	-0.70255	116.56767	-0.08305
4.48900	0.20089	1.12035	116.66767	-0.05432
4.48900	0.20110	-0.85845	116.76768	-0.07634
4.48900	0.20126	0.64395	116.86768	-0.05982
4.48900	0.20145	0.03535	116.96769	-0.05892
4.48900	0.20161	0.58775	117.06770	-0.04384
4.48900	0.20181	-0.91015	117.16770	-0.06718
4.48900	0.20197	-0.04365	117.26771	-0.06830
4.48900	0.20214	-0.55345	117.36771	-0.08249
4.48900	0.20231	1.08265	117.46772	-0.05473
4.48900	0.20244	-0.84315	117.56772	-0.07635
4.48900	0.20264	-0.04475	117.66773	-0.07750
4.48900	0.20281	-0.02415	117.76774	-0.07812
4.48900	0.20297	0.61565	117.86774	-0.06233
4.48900	0.20317	-0.93485	117.96775	-0.08630
4.48900	0.20333	0.15895	118.06775	-0.08223
4.48900	0.20351	-0.65865	118.16776	-0.09912
4.48900	0.20367	1.03075	118.26776	-0.07269
4.48900	0.20385	-0.03175	118.36777	-0.07350
4.48900	0.20398	0.61645	118.46778	-0.05769
4.48900	0.20420	-0.00995	118.56778	-0.05795
4.48900	0.20433	0.58775	118.66779	-0.04288
4.48900	0.20455	-1.00175	118.76779	-0.06856
4.48900	0.20471	0.17635	118.86780	-0.06404
4.48900	0.20490	-0.67915	118.96780	-0.08146
4.48900	0.20506	-0.02665	119.06781	-0.08214
4.48900	0.20524	-0.02565	119.16782	-0.08280
4.48800	0.20541	1.03135	119.26782	-0.05635
4.48900	0.20553	-0.24655	119.36783	-0.06267
4.48900	0.20573	-0.04275	119.46783	-0.06377
4.48900	0.20588	-1.07855	119.56784	-0.09143
4.48900	0.20613	0.11685	119.66784	-0.08843
4.48900	0.20627	-0.66285	119.76785	-0.10543
4.48900	0.20645	1.01005	119.86786	-0.07953
4.48900	0.20661	-0.89225	119.96786	-0.10240
4.48900	0.20679	0.65105	120.06787	-0.08571
4.48900	0.20695	-0.01685	120.16787	-0.08614
4.48900	0.20710	0.93725	120.26788	-0.06211
4.48900	0.20730	-0.56955	120.36788	-0.07671
4.48900	0.20743	-0.03615	120.46789	-0.07764
4.48900	0.20763	-0.09745	120.56790	-0.08014
4.48900	0.20781	1.01505	120.66790	-0.05411
4.48900	0.20799	-0.98205	120.76791	-0.07929
4.48900	0.20816	0.54245	120.86791	-0.06538
4.48900	0.20833	-1.06135	120.96792	-0.09260
4.48900	0.20851	0.98605	121.06792	-0.06731
4.48900	0.20863	-0.54485	121.16793	-0.08128
4.48900	0.20885	-0.04355	121.26794	-0.08240
4.48900	0.20899	-0.67705	121.36794	-0.09976
4.48900	0.20920	0.75875	121.46795	-0.08031
4.48900	0.20939	-0.00695	121.56795	-0.08048
4.48900	0.20955	0.42865	121.66796	-0.06949
4.48900	0.20973	-1.07265	121.76796	-0.09700
4.48900	0.20990	0.90055	121.86797	-0.07390
4.48900	0.21006	0.00145	121.96798	-0.07387
4.48900	0.21020	-0.02585	122.06798	-0.07453
4.48900	0.21043	-0.46075	122.16799	-0.08634
4.48900	0.21055	1.01625	122.26799	-0.06029
4.48900	0.21077	-0.09015	122.36800	-0.06260
4.48900	0.21093	0.50865	122.46800	-0.04955
4.48900	0.21111	-1.05315	122.56801	-0.07656
4.48900	0.21128	-0.02425	122.66802	-0.07718
4.48900	0.21146	-0.57595	122.76802	-0.09195
4.48900	0.21161	-0.01865	122.86803	-0.09243
4.48900	0.21176	-0.63465	122.96803	-0.10870
4.48900	0.21202	0.67445	123.06804	-0.09141
4.48900	0.21210	-0.03785	123.16805	-0.09238
4.48900	0.21231	0.99385	123.26805	-0.06689
4.48900	0.21250	-0.11705	123.36806	-0.06989
4.48900	0.21267	-0.03455	123.46806	-0.07078
4.48900	0.21280	-0.12045	123.56807	-0.07387
4.48900	0.21297	0.98375	123.66807	-0.04864
4.48900	0.21317	-0.01265	123.76808	-0.04897
4.48900	0.21328	0.43675	123.86808	-0.03777
4.48900	0.21350	-0.03465	123.96809	-0.03866
4.48900	0.21364	0.74535	124.06810	-0.01954
4.48900	0.21389	-0.85325	124.16810	-0.04142
4.48900	0.21403	0.12665	124.26811	-0.03817
4.48900	0.21422	-0.65875	124.36811	-0.05507
4.48900	0.21438	-0.04715	124.46812	-0.05628
4.48900	0.21455	0.00015	124.56813	-0.05627
4.48900	0.21470	0.95245	124.66813	-0.03185
4.48900	0.21486	-0.00905	124.76814	-0.03208
4.48900	0.21506	0.51095	124.86814	-0.01898
4.48900	0.21519	-0.86645	124.96815	-0.04120
4.48900	0.21540	0.03355	125.06815	-0.04034
4.48900	0.21558	-0.52555	125.16816	-0.05381
4.48900	0.21575	0.92315	125.26817	-0.03014
4.48900	0.21592	-1.10155	125.36817	-0.05839
4.48900	0.21610	0.40505	125.46818	-0.04800
4.48900	0.21625	0.00895	125.56818	-0.04777
4.48900	0.21639	0.97575	125.66819	-0.02275
4.48900	0.21662	-0.59255	125.76819	-0.03794
4.48900	0.21672	0.58955	125.86720	-0.02298
4.48900	0.21697	-4.55446E-5	125.96721	-0.02298
4.48900	0.21711	0.93325	126.06721	0.00095
4.48900	0.21730	-1.10995	126.16722	-0.02751
4.48900	0.21747	0.32345	126.26722	-0.01921
4.48900	0.21765	-0.91585	126.36723	-0.04270
4.48900	0.21783	1.02905	126.46723	-0.01631
4.48900	0.21795	-0.43995	126.56724	-0.02759
4.48900	0.21816	-0.05505	126.66724	-0.02900
4.48900	0.21830	-0.56105	126.76725	-0.04339
4.48900	0.21851	0.00075	126.86726	-0.04337
4.48900	0.21869	-0.03035	126.96726	-0.04415
4.48900	0.21886	0.86835	127.06727	-0.02188
4.48900	0.21903	-0.65815	127.16727	-0.03876
4.48900	0.21921	1.08145	127.26728	-0.01103
4.48900	0.21938	-0.44075	127.36729	-0.02233
4.48900	0.21953	1.00835	127.46729	0.00353
4.48900	0.21972	-1.15975	127.56730	-0.02621
4.48900	0.21985	0.32435	127.66730	-0.01789
4.48900	0.22008	0.09735	127.76731	-0.01540
4.48900	0.22025	-0.02775	127.86731	-0.01611
4.48900	0.22042	-0.89855	127.96732	-0.03915
4.48900	0.22059	-0.06285	128.06733	-0.04076
4.48800	0.22075	-0.12115	128.16733	-0.04387
4.48800	0.22092	0.88805	128.26734	-0.02110
4.48900	0.22107	-1.12415	128.36734	-0.04992
4.48900	0.22128	-0.00285	128.46735	-0.05000
4.48900	0.22141	0.04685	128.56735	-0.04879
4.48900	0.22162	0.00715	128.66736	-0.04861
4.48900	0.22180	-0.86625	128.76736	-0.07082
4.48900	0.22197	-0.01135	128.86737	-0.07111
4.48900	0.22214	-0.29315	128.96738	-0.07863
4.48900	0.22232	0.90185	129.06738	-0.05551
4.48900	0.22249	-0.03055	129.16739	-0.05629
4.48900	0.22263	0.22525	129.26739	-0.05051
4.48900	0.22283	0.01985	129.36740	-0.05000
4.48900	0.22300	0.82295	129.46741	-0.02890
4.48900	0.22316	-0.55025	129.56741	-0.04301
4.48900	0.22334	-0.01805	129.66742	-0.04347
4.48900	0.22353	-0.34855	129.76742	-0.05241
4.48900	0.22369	-0.00515	129.86743	-0.05254
4.48900	0.22382	-0.91505	129.96743	-0.07601
4.48900	0.22401	0.78465	130.06744	-0.05589
4.48900	0.22415	-0.00695	130.16745	-0.05606
4.48900	0.22437	-0.01405	130.26745	-0.05642
4.48900	0.22450	-0.82065	130.36746	-0.07747
4.48900	0.22470	-0.03355	130.46746	-0.07833
4.48900	0.22489	-0.94425	130.56747	-0.10254
4.48900	0.22507	-0.00215	130.66747	-0.10260
4.48900	0.22524	-0.00035	130.76748	-0.10261
4.48900	0.22542	0.94325	130.86749	-0.07842
4.48900	0.22560	0.02745	130.96749	-0.07771
4.48900	0.22572	0.80975	131.06750	-0.05695
4.48800	0.22593	-0.01225	131.16750	-0.05726
4.48800	0.22606	-0.02945	131.26751	-0.05802
4.48900	0.22628	-0.86095	131.36751	-0.08010
4.48900	0.22646	0.72955	131.46752	-0.06139
4.48900	0.22664	0.01875	131.56753	-0.06091
4.48900	0.22679	0.34465	131.66753	-0.05207
4.48900	0.22698	-1.01005	131.76754	-0.07797
4.48900	0.22715	-0.02495	131.86754	-0.07861
4.48900	0.22728	-0.88335	131.96755	-0.10126
4.48900	0.22750	0.01345	132.06755	-0.10092
4.48900	0.22765	-0.30465	132.16756	-0.10873
4.48900	0.22783	0.89275	132.26757	-0.08583
4.48900	0.22804	0.00505	132.36757	-0.08571
4.48900	0.22818	0.84085	132.46758	-0.06414
4.48900	0.22835	-0.96215	132.56758	-0.08882
4.48900	0.22847	0.01135	132.66759	-0.08852
4.48900	0.22869	-0.01795	132.76759	-0.08898
4.48900	0.22886	0.73415	132.86760	-0.07016
4.48900	0.22904	-1.07145	132.96761	-0.09763
4.48900	0.22923	0.16855	133.06761	-0.09331
4.48900	0.22936	0.01405	133.16762	-0.09295
4.48900	0.22956	1.08455	133.26762	-0.06514
4.48900	0.22974	-0.15575	133.36763	-0.06913
4.48900	0.22989	0.01535	133.46763	-0.06874
4.48900	0.23004	-0.94685	133.56764	-0.09302
4.48900	0.23028	0.51735	133.66765	-0.07975
4.48900	0.23038	-1.07105	133.76765	-0.10722
4.48900	0.23058	-0.01015	133.86766	-0.10748
4.48900	0.23076	-0.96895	133.96766	-0.13232
4.48900	0.23093	1.12415	134.06767	-0.10350
4.48900	0.23110	-0.31815	134.16767	-0.11166
4.48900	0.23127	-0.01885	134.26768	-0.11214
4.48900	0.23144	0.01525	134.36769	-0.11175
4.48900	0.23159	0.85505	134.46769	-0.08982
4.48900	0.23179	0.02815	134.56770	-0.08910
4.48900	0.23192	0.75685	134.66770	-0.06969
4.48800	0.23212	-0.68605	134.76771	-0.08728
4.48900	0.23230	1.08345	134.86771	-0.05950
4.48900	0.23246	0.01665	134.96772	-0.05907
4.48900	0.23263	0.00775	135.06773	-0.05888
4.48900	0.23280	0.03055	135.16773	-0.05809
4.48900	0.23300	0.76535	135.26774	-0.03847
4.48900	0.23311	0.02075	135.36774	-0.03793
4.48900	0.23334	0.02475	135.46775	-0.03730
4.48900	0.23346	-0.79755	135.56775	-0.05775
4.48900	0.23368	0.01585	135.66776	-0.05734
4.48900	0.23384	-0.04545	135.76777	-0.05851
4.48900	0.23402	-0.02895	135.86777	-0.05925
4.48900	0.23419	0.03085	135.96778	-0.05846
4.48900	0.23437	0.74025	136.06778	-0.03948
4.48900	0.23454	0.00625	136.16779	-0.03932
4.48900	0.23466	0.05995	136.26779	-0.03778
4.48900	0.23489	0.06035	136.36780	-0.03623
4.48900	0.23500	1.07225	136.46781	-0.00874
4.48900	0.23522	-0.61825	136.56781	-0.02459
4.48900	0.23541	-0.02265	136.66782	-0.02517
4.48900	0.23557	0.02545	136.76782	-0.02452
4.48900	0.23575	1.01465	136.86783	0.00150
4.48900	0.23594	0.00315	136.96783	0.00158
4.48900	0.23608	1.07745	137.06784	0.02921
4.48900	0.23624	-0.42525	137.16785	0.01830
4.48900	0.23645	-0.00585	137.26785	0.01815
4.48900	0.23656	-0.00725	137.36786	0.01797
4.48900	0.23683	-0.00895	137.46786	0.01774
4.48900	0.23697	-1.05445	137.56787	-0.00930
4.48900	0.23715	0.36235	137.66787	-7.93233E-6
4.48900	0.23732	0.00415	137.76788	9.85982E-5
4.48900	0.23749	-0.02985	137.86789	-0.00067
4.48900	0.23766	-0.64145	137.96789	-0.01712
4.48900	0.23780	0.01455	138.06790	-0.01674
4.48900	0.23800	0.03095	138.16790	-0.01595
4.48900	0.23814	0.66565	138.26791	0.00112
4.48900	0.23835	-1.06285	138.36791	-0.02613
4.48900	0.23849	0.03095	138.46792	-0.02534
4.48900	0.23867	0.02755	138.56793	-0.02463
4.48900	0.23886	0.01255	138.66793	-0.02431
4.48900	0.23903	-0.74915	138.76794	-0.04352
4.48900	0.23919	0.00395	138.86794	-0.04342
4.48900	0.23934	-0.05785	138.96795	-0.04490
4.48900	0.23954	0.76885	139.06795	-0.02519
4.48900	0.23967	-1.03795	139.16796	-0.05180
4.48900	0.23988	0.01745	139.26797	-0.05136
4.48900	0.24005	-0.85015	139.36797	-0.07316
4.48900	0.24023	1.01495	139.46798	-0.04713
4.48900	0.24039	-0.01875	139.56798	-0.04761
4.48900	0.24056	-0.03025	139.66799	-0.04839
4.48900	0.24072	-0.85525	139.76799	-0.07032
4.48900	0.24086	0.58855	139.86800	-0.05522
4.48900	0.24105	0.03995	139.96801	-0.05420
4.48900	0.24122	0.00895	140.06801	-0.05397
4.48900	0.24144	-0.73155	140.16802	-0.07273
4.48900	0.24161	1.02895	140.26802	-0.04634
4.48900	0.24176	0.00435	140.36803	-0.04623
4.48900	0.24195	-0.01965	140.46803	-0.04674
4.48900	0.24212	0.00285	140.56804	-0.04666
4.48900	0.24226	0.66185	140.66805	-0.02969
4.48900	0.24241	-0.00985	140.76805	-0.02994
4.48900	0.24263	-0.00465	140.86806	-0.03006
4.48900	0.24276	-0.77635	140.96806	-0.04997
4.48900	0.24298	-0.04275	141.06807	-0.05107
4.48900	0.24315	-0.02985	141.16807	-0.05183
4.48900	0.24331	-0.00145	141.26808	-0.05187
4.48900	0.24348	-0.00925	141.36809	-0.05211
4.48900	0.24366	0.57715	141.46809	-0.03731
4.48900	0.24383	-0.04265	141.56810	-0.03840
4.48900	0.24396	-0.02345	141.66810	-0.03900
4.48900	0.24420	0.00615	141.76811	-0.03884
4.48900	0.24432	1.10275	141.86811	-0.01057
4.48900	0.24452	-0.41025	141.96812	-0.02109
4.48900	0.24470	-0.04345	142.06813	-0.02220
4.48900	0.24489	-0.01565	142.16813	-0.02260
4.48900	0.24505	0.64045	142.26814	-0.00618
4.48900	0.24524	0.00685	142.36814	-0.00600
4.48900	0.24540	-0.04435	142.46815	-0.00714
4.48900	0.24555	-0.68565	142.56815	-0.02472
4.48900	0.24572	0.95845	142.66816	-0.00014
4.48900	0.24587	-0.03875	142.76817	-0.00114
4.48900	0.24608	-0.03245	142.86817	-0.00197
4.48900	0.24626	-1.01365	142.96818	-0.02796
4.48900	0.24643	-0.06385	143.06818	-0.02960
4.48900	0.24661	-0.02645	143.16819	-0.03028
4.48900	0.24677	1.09455	143.26819	-0.00221
4.48900	0.24695	-0.23605	143.36720	-0.00820
4.48900	0.24707	0.88855	143.46721	0.01458
4.48900	0.24729	-0.05145	143.56721	0.01326
4.48900	0.24741	0.41315	143.66722	0.02386
4.48800	0.24762	-0.95145	143.76722	-0.00054
4.48900	0.24779	-0.05605	143.86723	-0.00198
4.48900	0.24798	0.00065	143.96723	-0.00196
4.48900	0.24814	-0.04695	144.06724	-0.00316
4.48900	0.24831	-0.64555	144.16725	-0.01972
4.48900	0.24848	-0.09725	144.26725	-0.02221
4.48900	0.24861	-0.01245	144.36726	-0.02253
4.48900	0.24883	0.46975	144.46726	-0.01048
4.48900	0.24897	-0.95855	144.56727	-0.03506
4.48900	0.24917	-0.08035	144.66727	-0.03712
4.48900	0.24934	-0.00195	144.76728	-0.03717
4.48900	0.24952	1.04165	144.86729	-0.01046
4.48900	0.24972	-0.34225	144.96729	-0.01924
4.48900	0.24989	-0.04045	145.06730	-0.02028
4.48900	0.25007	-0.01405	145.16730	-0.02064
4.48900	0.25017	0.42905	145.26731	-0.00963
4.48900	0.25039	-0.01685	145.36731	-0.01007
4.48900	0.25050	-0.05895	145.46732	-0.01158
4.48900	0.25071	-0.01815	145.56733	-0.01204
4.48900	0.25089	1.04055	145.66733	0.01464
4.48900	0.25108	-0.06835	145.76734	0.01289
4.48800	0.25125	-0.04825	145.86734	0.01165
4.48900	0.25142	0.00965	145.96735	0.01190
4.48900	0.25158	-0.04945	146.06735	0.01063
4.48900	0.25173	-1.12205	146.16736	-0.01814
4.48900	0.25193	0.00055	146.26737	-0.01813
4.48900	0.25205	-0.02485	146.36737	-0.01877
4.48900	0.25228	-0.07065	146.46738	-0.02058
4.48900	0.25245	-1.09385	146.56738	-0.04863
4.48900	0.25263	-0.06355	146.66739	-0.05026
4.48900	0.25279	-0.55425	146.76739	-0.06447
4.48900	0.25298	0.99655	146.86740	-0.03891
4.48900	0.25313	-0.00595	146.96741	-0.03907
4.48900	0.25326	0.45865	147.06741	-0.02731
4.48900	0.25350	-0.02405	147.16742	-0.02792
4.48900	0.25365	-0.01845	147.26742	-0.02839
4.48900	0.25383	-1.08885	147.36743	-0.05632
4.48900	0.25401	-0.05705	147.46743	-0.05778
4.48900	0.25419	0.05195	147.56744	-0.05645
4.48900	0.25437	0.40645	147.66745	-0.04602
4.48900	0.25451	-0.03475	147.76745	-0.04691
4.48900	0.25470	-0.03805	147.86746	-0.04789
4.48900	0.25484	-0.45195	147.96746	-0.05948
4.48900	0.25503	0.82135	148.06747	-0.03842
4.48900	0.25518	-0.03815	148.16747	-0.03940
4.48900	0.25538	-0.07035	148.26748	-0.04120
4.48900	0.25557	-0.97895	148.36749	-0.06630
4.48900	0.25574	-0.07205	148.46749	-0.06815
4.48900	0.25589	-0.05325	148.56750	-0.06951
4.48900	0.25607	-0.06315	148.66750	-0.07113
4.48900	0.25624	-0.04205	148.76751	-0.07221
4.48900	0.25640	-0.04555	148.86752	-0.07338
4.48900	0.25662	-0.04925	148.96752	-0.07464
4.48900	0.25672	-0.05275	149.06753	-0.07600
4.48900	0.25694	-1.00915	149.16753	-0.10187
4.48900	0.25712	-0.04065	149.26754	-0.10291
4.48900	0.25729	-0.03535	149.36754	-0.10382
4.48900	0.25745	-0.05495	149.46755	-0.10523
4.48900	0.25762	-0.45115	149.56755	-0.11680
4.48900	0.25779	-0.06495	149.66756	-0.11846
4.48900	0.25793	-0.04715	149.76757	-0.11967
4.48900	0.25811	0.36835	149.86757	-0.11023
4.48900	0.25828	-0.82425	149.96758	-0.13136
4.48900	0.25848	-0.07945	150.06758	-0.13340
4.48900	0.25865	-0.72685	150.16759	-0.15204
4.48900	0.25884	0.80805	150.26759	-0.13132
4.48900	0.25901	-0.05575	150.36760	-0.13275
4.48900	0.25916	-0.09875	150.46761	-0.13528
4.48900	0.25934	-0.05255	150.56761	-0.13663
4.48900	0.25948	0.33085	150.66762	-0.12814
4.48900	0.25971	0.03115	150.76762	-0.12734
4.48900	0.25982	-0.07185	150.86763	-0.12919
4.48900	0.26005	-0.42975	150.96764	-0.14021
4.48900	0.26023	0.80435	151.06764	-0.11958
4.48900	0.26038	0.02205	151.16765	-0.11901
4.48900	0.26055	-0.06775	151.26765	-0.12075
4.48900	0.26074	-0.06285	151.36766	-0.12236
4.48900	0.26093	-0.05575	151.46766	-0.12379
4.48900	0.26104	0.12175	151.56767	-0.12067
4.48900	0.26126	0.95155	151.66768	-0.09627
4.48900	0.26139	-0.02305	151.76768	-0.09686
4.48900	0.26160	-0.11705	151.86769	-0.09986
4.48900	0.26177	-0.02705	151.96769	-0.10056
4.48900	0.26195	0.27285	152.06770	-0.09356
4.48900	0.26213	-0.80655	152.16770	-0.11424
4.48900	0.26230	-0.07845	152.26771	-0.11625
4.48900	0.26242	-0.02485	152.36771	-0.11689
4.48900	0.26263	0.94025	152.46772	-0.09278
4.48900	0.26278	-0.03795	152.56773	-0.09375
4.48900	0.26297	-0.06115	152.66773	-0.09532
4.48900	0.26314	-0.06195	152.76774	-0.09691
4.48900	0.26330	0.94435	152.86774	-0.07269
4.48900	0.26348	0.17945	152.96775	-0.06809
4.48900	0.26366	0.53045	153.06776	-0.05449
4.48900	0.26380	-0.04785	153.16776	-0.05572
4.48900	0.26400	-0.07545	153.26777	-0.05765
4.48900	0.26412	-0.98415	153.36777	-0.08289
4.48900	0.26437	-0.04615	153.46778	-0.08407
4.48900	0.26455	-0.01215	153.56778	-0.08438
4.48900	0.26470	0.14825	153.66779	-0.08058
4.48900	0.26488	-0.02625	153.76780	-0.08125
4.48900	0.26506	-0.03735	153.86780	-0.08221
4.48900	0.26523	-0.98555	153.96781	-0.10748
4.48900	0.26536	-0.04935	154.06781	-0.10875
4.48900	0.26557	-0.21825	154.16782	-0.11434
4.48900	0.26569	-0.07555	154.26782	-0.11628
4.48800	0.26590	-0.01545	154.36783	-0.11668
4.48900	0.26607	0.96135	154.46783	-0.09203
4.48900	0.26626	-0.00535	154.56784	-0.09216
4.48900	0.26641	0.17205	154.66785	-0.08775
4.48900	0.26659	-0.06005	154.76785	-0.08929
4.48900	0.26676	-0.07105	154.86786	-0.09111
4.48900	0.26689	-0.26175	154.96786	-0.09782
4.48900	0.26710	-0.02625	155.06787	-0.09850
4.48900	0.26723	-0.04145	155.16788	-0.09956
4.48900	0.26744	0.91395	155.26788	-0.07612
4.48900	0.26762	-0.00845	155.36789	-0.07634
4.48900	0.26778	0.85485	155.46789	-0.05442
4.48900	0.26797	-0.04725	155.56790	-0.05563
4.48900	0.26815	-0.06415	155.66790	-0.05728
4.48900	0.26831	-0.00175	155.76791	-0.05732
4.48900	0.26843	-0.09815	155.86792	-0.05984
4.48900	0.26863	-0.01865	155.96792	-0.06032
4.48900	0.26877	0.13435	156.06793	-0.05687
4.48900	0.26900	-0.04155	156.16793	-0.05794
4.48900	0.26918	1.06465	156.26794	-0.03064
4.48900	0.26933	-0.04995	156.36794	-0.03192
4.48900	0.26951	-0.05425	156.46795	-0.03331
4.48900	0.26968	-0.01755	156.56796	-0.03376
4.48900	0.26985	0.03065	156.66796	-0.03297
4.48900	0.26997	-0.68235	156.76797	-0.05047
4.48900	0.27019	-0.08065	156.86797	-0.05254
4.48900	0.27034	-0.02955	156.96798	-0.05329
4.48900	0.27053	0.66035	157.06798	-0.03636
4.48900	0.27071	-0.05955	157.16799	-0.03789
4.48900	0.27091	-0.06445	157.26800	-0.03954
4.48900	0.27108	-0.99795	157.36800	-0.06513
4.48900	0.27125	-0.05615	157.46801	-0.06657
4.48900	0.27142	-0.76625	157.56801	-0.08622
4.48900	0.27153	-0.06715	157.66802	-0.08794
4.48900	0.27174	-0.54605	157.76802	-0.10194
4.48900	0.27190	0.70375	157.86803	-0.08390
4.48900	0.27209	-0.06035	157.96804	-0.08544
4.48900	0.27227	-0.11655	158.06804	-0.08843
4.48800	0.27245	-1.08915	158.16805	-0.11636
4.48800	0.27263	-0.04865	158.26805	-0.11761
4.48900	0.27280	0.07425	158.36806	-0.11570
4.48900	0.27296	-0.04175	158.46806	-0.11677
4.48900	0.27310	-0.19905	158.56807	-0.12188
4.48900	0.27330	0.63565	158.66808	-0.10558
4.48900	0.27345	0.02995	158.76808	-0.10481
4.48900	0.27365	-0.02895	158.86809	-0.10555
4.48900	0.27384	-0.05395	158.96809	-0.10694
4.48900	0.27400	0.08185	159.06810	-0.10484
4.48900	0.27416	-0.04995	159.16810	-0.10612
4.48900	0.27434	-0.08165	159.26811	-0.10821
4.48900	0.27452	-0.14875	159.36812	-0.11203
4.48900	0.27464	-0.05795	159.46812	-0.11351
4.48900	0.27486	-0.02465	159.56813	-0.11414
4.48900	0.27499	-0.06065	159.66813	-0.11570
4.48900	0.27519	-0.03555	159.76814	-0.11661
4.48900	0.27538	0.84385	159.86814	-0.09497
4.48900	0.27555	-0.02905	159.96815	-0.09572
4.48900	0.27572	0.07025	160.06816	-0.09391
4.48900	0.27591	-0.02815	160.16816	-0.09464
4.48900	0.27607	-0.09075	160.26817	-0.09696
4.48900	0.27618	-0.88915	160.36817	-0.11976
4.48900	0.27640	-0.02995	160.46818	-0.12053
4.48900	0.27657	-0.03695	160.56818	-0.12148
4.48900	0.27674	-0.04655	160.66819	-0.12267
4.48900	0.27693	-0.00635	160.76720	-0.12283
4.48900	0.27708	0.77595	160.86720	-0.10294
4.48900	0.27725	-0.02555	160.96721	-0.10359
4.48900	0.27744	-0.04735	161.06721	-0.10480
4.48900	0.27760	-0.05145	161.16722	-0.10612
4.48900	0.27774	-0.05265	161.26722	-0.10747
4.48900	0.27794	-0.82405	161.36723	-0.12860
4.48900	0.27806	-0.06775	161.46724	-0.13034
4.48900	0.27828	-0.05085	161.56724	-0.13165
4.48900	0.27852	-0.05315	161.66725	-0.13301
4.48900	0.27865	-0.88165	161.76725	-0.15562
4.48900	0.27880	-0.07345	161.86726	-0.15750
4.48900	0.27897	-0.04355	161.96726	-0.15862
4.48900	0.27915	0.66625	162.06727	-0.14153
4.48900	0.27928	-0.01005	162.16728	-0.14179
4.48900	0.27951	-0.02695	162.26728	-0.14248
4.48900	0.27965	-0.03865	162.36729	-0.14347
4.48900	0.27986	-0.07855	162.46729	-0.14549
4.48900	0.28002	-0.02315	162.56730	-0.14608
4.48900	0.28022	-0.03615	162.66730	-0.14701
4.48900	0.28038	-0.03455	162.76731	-0.14789
4.48900	0.28057	0.72655	162.86732	-0.12926
4.48900	0.28074	-0.00255	162.96732	-0.12933
4.48900	0.28085	-0.05565	163.06733	-0.13075
4.48900	0.28108	-0.03725	163.16733	-0.13171
4.48900	0.28120	-0.05405	163.26734	-0.13309
4.48900	0.28141	-0.82485	163.36734	-0.15424
4.48900	0.28160	-0.11245	163.46735	-0.15713
4.48900	0.28175	-0.41185	163.56736	-0.16769
4.48900	0.28195	-0.05775	163.66736	-0.16917
4.48900	0.28210	-0.01085	163.76737	-0.16945
4.48900	0.28228	-0.04315	163.86737	-0.17055
4.48900	0.28241	-0.05815	163.96738	-0.17205
4.48900	0.28263	0.39065	164.06738	-0.16203
4.48900	0.28275	0.02955	164.16739	-0.16127
4.48900	0.28296	0.19115	164.26740	-0.15637
4.48900	0.28313	-0.61605	164.36740	-0.17217
4.48900	0.28333	-0.06555	164.46741	-0.17385
4.48900	0.28350	0.05175	164.56741	-0.17252
4.48900	0.28366	0.93765	164.66742	-0.14848
4.48900	0.28386	-0.03445	164.76742	-0.14936
4.48900	0.28396	-0.13745	164.86743	-0.15288
4.48900	0.28419	-0.01515	164.96744	-0.15327
4.48900	0.28429	-0.03335	165.06744	-0.15413
4.48900	0.28454	-0.47025	165.16745	-0.16618
4.48900	0.28470	-0.07675	165.26745	-0.16815
4.48900	0.28484	-0.01405	165.36746	-0.16851
4.48900	0.28505	-0.03825	165.46746	-0.16949
4.48900	0.28522	-0.05365	165.56747	-0.17087
4.48900	0.28537	-0.07635	165.66748	-0.17283
4.48900	0.28550	-0.02715	165.76748	-0.17352
4.48900	0.28571	0.67855	165.86749	-0.15612
4.48900	0.28590	0.25935	165.96749	-0.14947
4.48900	0.28606	0.11935	166.06750	-0.14641
4.48900	0.28624	-0.02435	166.16750	-0.14704
4.48900	0.28642	-0.04315	166.26751	-0.14814
4.48900	0.28658	-0.71985	166.36752	-0.16660
4.48900	0.28672	-0.09255	166.46752	-0.16897
4.48900	0.28691	-0.04975	166.56753	-0.17025
4.48900	0.28705	-0.04485	166.66753	-0.17140
4.48900	0.28724	0.00585	166.76754	-0.17125
4.48900	0.28742	-0.02045	166.86754	-0.17177
4.48900	0.28759	-0.02555	166.96755	-0.17243
4.48900	0.28777	-0.06325	167.06756	-0.17405
4.48900	0.28795	-0.02315	167.16756	-0.17464
4.48900	0.28813	-0.03005	167.26757	-0.17541
4.48900	0.28828	-0.05055	167.36757	-0.17671
4.48900	0.28848	-0.06835	167.46758	-0.17846
4.48900	0.28861	-0.33085	167.56758	-0.18695
4.48900	0.28882	-0.06345	167.66759	-0.18857
4.48900	0.28900	-0.01835	167.76760	-0.18904
4.48900	0.28919	0.27415	167.86760	-0.18201
4.48900	0.28934	-0.04935	167.96761	-0.18328
4.48900	0.28954	-0.07915	168.06761	-0.18531
4.48900	0.28969	-0.01245	168.16762	-0.18563
4.48900	0.28982	-0.03025	168.26762	-0.18640
4.48900	0.29004	-0.40875	168.36763	-0.19689
4.48900	0.29016	-0.05105	168.46764	-0.19819
4.48900	0.29039	-0.05815	168.56764	-0.19969
4.48900	0.29055	0.26545	168.66765	-0.19288
4.48900	0.29073	-0.02055	168.76765	-0.19341
4.48900	0.29090	-0.27865	168.86766	-0.20055
4.48900	0.29108	-0.73215	168.96766	-0.21932
4.48900	0.29125	-0.07535	169.06767	-0.22126
4.48900	0.29138	0.02595	169.16768	-0.22059
4.48900	0.29162	0.81385	169.26768	-0.19972
4.48900	0.29171	-0.03435	169.36769	-0.20060
4.48900	0.29194	0.16085	169.46769	-0.19648
4.48900	0.29212	0.01425	169.56770	-0.19611
4.48900	0.29229	-0.08075	169.66770	-0.19818
4.48900	0.29244	-0.02055	169.76771	-0.19871
4.48900	0.29263	-0.01785	169.86772	-0.19917
4.48900	0.29280	-0.01965	169.96772	-0.19967
4.48900	0.29292	-0.04415	170.06773	-0.20080
4.48900	0.29314	-0.64175	170.16773	-0.21726
4.48900	0.29328	-0.35555	170.26774	-0.22638
4.48800	0.29350	-0.02165	170.36774	-0.22693
4.48800	0.29365	-0.06635	170.46775	-0.22863
4.48900	0.29385	-0.00525	170.56776	-0.22877
4.48900	0.29403	0.58115	170.66776	-0.21386
4.48900	0.29418	0.01905	170.76777	-0.21338
4.48900	0.29434	-0.06445	170.86777	-0.21503
4.48900	0.29449	-0.02875	170.96778	-0.21577
4.48900	0.29471	-0.08575	171.06778	-0.21796
4.48900	0.29483	-0.63225	171.16779	-0.23418
4.48900	0.29503	-0.07875	171.26780	-0.23620
4.48900	0.29522	-0.04985	171.36780	-0.23747
4.48900	0.29538	-0.06845	171.46781	-0.23923
4.48900	0.29556	-0.01325	171.56781	-0.23957
4.48900	0.29571	0.57095	171.66782	-0.22493
4.48900	0.29588	-0.03695	171.76782	-0.22588
4.48900	0.29601	-0.07235	171.86783	-0.22773
4.48900	0.29625	-0.01135	171.96784	-0.22802
4.48900	0.29636	-0.06265	172.06784	-0.22963
4.48900	0.29658	-0.58495	172.16785	-0.24463
4.48900	0.29676	-0.06185	172.26785	-0.24621
4.48900	0.29694	-0.02465	172.36786	-0.24685
4.48900	0.29709	-0.10535	172.46786	-0.24955
4.48900	0.29729	-0.63125	172.56787	-0.26573
4.48900	0.29744	-0.10415	172.66788	-0.26840
4.48900	0.29757	-0.02075	172.76788	-0.26894
4.48900	0.29780	0.56685	172.86789	-0.25440
4.48900	0.29793	0.02175	172.96789	-0.25384
4.48900	0.29814	0.56185	173.06790	-0.23943
4.48900	0.29833	-0.01155	173.16790	-0.23973
4.48900	0.29849	0.51635	173.26791	-0.22649
4.48900	0.29870	-0.04305	173.36792	-0.22759
4.48900	0.29886	-0.07795	173.46792	-0.22959
4.48900	0.29901	0.00115	173.56793	-0.22956
4.48900	0.29915	0.54555	173.66793	-0.21557
4.48900	0.29937	0.00345	173.76794	-0.21549
4.48900	0.29949	-0.06885	173.86794	-0.21725
4.48900	0.29971	-0.01825	173.96795	-0.21772
4.48900	0.29988	-0.07725	174.06796	-0.21970
4.48900	0.30006	-0.53315	174.16796	-0.23337
4.48900	0.30023	-0.13535	174.26797	-0.23684
4.48900	0.30039	-0.44465	174.36797	-0.24824
4.48900	0.30056	-0.04335	174.46798	-0.24935
4.48900	0.30068	-0.03065	174.56799	-0.25014
4.48900	0.30090	-0.10245	174.66799	-0.25277
4.48900	0.30102	-0.00655	174.76800	-0.25293
4.48900	0.30124	-0.07285	174.86800	-0.25480
4.48900	0.30142	-0.06785	174.96801	-0.25654
4.48900	0.30159	-0.04435	175.06801	-0.25768
4.48900	0.30177	-0.18795	175.16802	-0.26250
4.48900	0.30193	-0.08325	175.26802	-0.26463
4.48900	0.30210	-0.00395	175.36803	-0.26473
4.48900	0.30224	0.04225	175.46804	-0.26365
4.48900	0.30244	-0.04665	175.56804	-0.26485
4.48900	0.30256	-0.07645	175.66805	-0.26681
4.48900	0.30279	-0.58525	175.76805	-0.28181
4.48900	0.30297	-0.02525	175.86806	-0.28246
4.48900	0.30315	-0.18865	175.96806	-0.28730
4.48900	0.30330	-0.05635	176.06807	-0.28874
4.48900	0.30348	-0.03355	176.16808	-0.28960
4.48900	0.30368	0.00915	176.26808	-0.28937
4.48900	0.30380	-0.01625	176.36809	-0.28979
4.48900	0.30402	-0.34675	176.46809	-0.29868
4.48900	0.30413	-0.02295	176.56810	-0.29927
4.48900	0.30434	-0.03415	176.66811	-0.30014
4.48900	0.30452	0.06175	176.76811	-0.29856
4.48900	0.30471	0.65155	176.86812	-0.28185
4.48900	0.30487	-0.02365	176.96812	-0.28246
4.48900	0.30505	0.03195	177.06813	-0.28164
4.48900	0.30524	0.04495	177.16813	-0.28049
4.48900	0.30538	-0.08675	177.26814	-0.28271
4.48900	0.30553	-0.54425	177.36814	-0.29667
4.48900	0.30571	-0.03055	177.46815	-0.29745
4.48900	0.30592	-0.01825	177.56816	-0.29792
4.48900	0.30606	-0.06195	177.66816	-0.29950
4.48900	0.30626	-0.00175	177.76817	-0.29955
4.48900	0.30642	-0.08465	177.86817	-0.30172
4.48900	0.30654	-0.06405	177.96818	-0.30336
4.48900	0.30676	-0.05815	178.06818	-0.30485
4.48900	0.30688	-0.40055	178.16819	-0.31512
4.48900	0.30710	-0.05835	178.26720	-0.31661
4.48900	0.30727	0.00175	178.36720	-0.31656
4.48900	0.30745	-0.05085	178.46721	-0.31786
4.48900	0.30761	-0.02495	178.56721	-0.31850
4.48900	0.30778	0.29035	178.66722	-0.31106
4.48900	0.30795	-0.05095	178.76723	-0.31237
4.48900	0.30807	-0.05835	178.86723	-0.31386
4.48900	0.30831	0.08465	178.96724	-0.31169
4.48900	0.30843	-0.02185	179.06724	-0.31225
4.48900	0.30864	-0.01365	179.16725	-0.31260
4.48900	0.30883	-0.02185	179.26725	-0.31316
4.48900	0.30900	-0.04545	179.36726	-0.31433
4.48900	0.30916	-0.03185	179.46727	-0.31514
4.48900	0.30933	-0.05185	179.56727	-0.31647
4.48900	0.30950	-0.08655	179.66728	-0.31869
4.48900	0.30964	-0.03755	179.76728	-0.31965
4.48900	0.30985	-0.03875	179.86729	-0.32065
4.48900	0.30998	0.00435	179.96729	-0.32054
4.48900	0.31021	-0.06815	180.06730	-0.32228
4.48900	0.31037	-0.02435	180.16730	-0.32291
4.48900	0.31053	-0.05535	180.26731	-0.32433
4.48900	0.31072	0.05855	180.36732	-0.32283
4.48900	0.31089	-0.04705	180.46732	-0.32403
4.48900	0.31105	-0.03755	180.56733	-0.32499
4.48900	0.31122	-0.03695	180.66733	-0.32594
4.48900	0.31141	0.30855	180.76734	-0.31803
4.48900	0.31153	-0.06655	180.86735	-0.31974
4.48900	0.31174	-0.06055	180.96735	-0.32129
4.48900	0.31191	-0.15415	181.06736	-0.32524
4.48900	0.31208	-0.57195	181.16736	-0.33991
4.48900	0.31226	-0.05545	181.26737	-0.34133
4.48900	0.31241	-0.02075	181.36737	-0.34186
4.48900	0.31259	-0.11985	181.46738	-0.34493
4.48900	0.31272	0.01015	181.56739	-0.34467
4.48900	0.31295	0.27685	181.66739	-0.33757
4.48900	0.31309	-0.03605	181.76740	-0.33850
4.48900	0.31330	-0.07445	181.86740	-0.34041
4.48900	0.31344	-0.01615	181.96741	-0.34082
4.48900	0.31367	-0.03925	182.06741	-0.34183
4.48900	0.31382	0.00755	182.16742	-0.34163
4.48900	0.31398	-0.04785	182.26743	-0.34286
4.48900	0.31417	0.02715	182.36743	-0.34217
4.48900	0.31430	0.27645	182.46744	-0.33508
4.48900	0.31451	-0.03575	182.56744	-0.33599
4.48900	0.31466	-0.04445	182.66745	-0.33713
4.48900	0.31487	-0.00045	182.76745	-0.33714
4.48900	0.31504	-0.06905	182.86746	-0.33891
4.48900	0.31520	0.07475	182.96747	-0.33700
4.48900	0.31537	-0.05685	183.06747	-0.33846
4.48900	0.31549	-0.01615	183.16748	-0.33887
4.48900	0.31571	-0.12205	183.26748	-0.34200
4.48900	0.31589	-0.29595	183.36749	-0.34959
4.48900	0.31606	-0.07395	183.46749	-0.35148
4.48900	0.31624	-0.00465	183.56750	-0.35160
4.48900	0.31640	-0.06095	183.66751	-0.35317
4.48900	0.31657	-0.01505	183.76751	-0.35355
4.48900	0.31676	-0.07545	183.86752	-0.35549
4.48900	0.31693	-0.02895	183.96752	-0.35623
4.48900	0.31705	-0.12755	184.06753	-0.35950
4.48900	0.31727	-0.03545	184.16753	-0.36041
4.48900	0.31740	0.15415	184.26754	-0.35645
4.48900	0.31761	0.08235	184.36755	-0.35434
4.48900	0.31778	-0.03085	184.46755	-0.35513
4.48900	0.31793	0.01415	184.56756	-0.35477
4.48900	0.31816	-0.04585	184.66756	-0.35595
4.48900	0.31832	-0.06655	184.76757	-0.35765
4.48900	0.31850	-0.10755	184.86757	-0.36041
4.48900	0.31862	-0.05345	184.96758	-0.36178
4.48900	0.31883	-0.10085	185.06759	-0.36437
4.48900	0.31897	-0.00125	185.16759	-0.36440
4.48900	0.31917	0.13255	185.26760	-0.36100
4.48900	0.31936	0.02435	185.36760	-0.36038
4.48900	0.31950	-0.05075	185.46761	-0.36168
4.48900	0.31968	-0.02615	185.56761	-0.36235
4.48900	0.31982	-0.10995	185.66762	-0.36517
4.48900	0.32004	-0.08435	185.76763	-0.36733
4.48900	0.32012	-0.05465	185.86763	-0.36873
4.48900	0.32036	-0.05555	185.96764	-0.37015
4.48900	0.32053	-0.09625	186.06764	-0.37262
4.48900	0.32070	-0.00015	186.16765	-0.37263
4.48900	0.32087	-0.05585	186.26765	-0.37406
4.48900	0.32105	-0.02175	186.36766	-0.37462
4.48900	0.32121	-0.10395	186.46767	-0.37728
4.48900	0.32134	-0.15415	186.56767	-0.38123
4.48900	0.32156	-0.07065	186.66768	-0.38305
4.48900	0.32172	-0.03375	186.76768	-0.38391
4.48900	0.32189	-0.03495	186.86769	-0.38481
4.48900	0.32206	-0.02935	186.96769	-0.38556
4.48900	0.32227	-0.06505	187.06770	-0.38723
4.48900	0.32242	-0.02995	187.16771	-0.38800
4.48900	0.32259	-0.45165	187.26771	-0.39958
4.48900	0.32276	-0.12075	187.36772	-0.40267
4.48900	0.32289	-0.07095	187.46772	-0.40449
4.48900	0.32311	0.18165	187.56773	-0.39983
4.48900	0.32326	-0.08065	187.66773	-0.40190
4.48900	0.32346	-0.00695	187.76774	-0.40208
4.48900	0.32366	-0.05385	187.86775	-0.40346
4.48900	0.32381	0.04495	187.96775	-0.40231
4.48900	0.32400	-0.10335	188.06776	-0.40496
4.48900	0.32416	-0.08025	188.16776	-0.40702
4.48900	0.32433	-0.03125	188.26777	-0.40782
4.48900	0.32444	-0.01955	188.36777	-0.40832
4.48900	0.32468	-0.05845	188.46778	-0.40982
4.48900	0.32482	-0.02915	188.56779	-0.41056
4.48900	0.32501	-0.05765	188.66779	-0.41204
4.48900	0.32521	-0.02295	188.76780	-0.41263
4.48900	0.32536	-0.10845	188.86780	-0.41541
4.48900	0.32553	-0.04125	188.96781	-0.41647
4.48900	0.32571	-0.05275	189.06781	-0.41782
4.48900	0.32587	-0.01225	189.16782	-0.41814
4.48900	0.32602	-0.05315	189.26783	-0.41950
4.48900	0.32622	0.00015	189.36783	-0.41949
4.48900	0.32635	0.24835	189.46784	-0.41313
4.48900	0.32658	-0.02175	189.56784	-0.41368
4.48900	0.32676	-0.06065	189.66785	-0.41524
4.48900	0.32692	0.07975	189.76785	-0.41319
4.48900	0.32707	-0.06515	189.86786	-0.41486
4.48900	0.32726	-0.01415	189.96787	-0.41523
4.48900	0.32743	-0.03575	190.06787	-0.41614
4.48900	0.32756	-0.03915	190.16788	-0.41715
4.48900	0.32778	-0.12935	190.26788	-0.42046
4.48900	0.32791	-0.04625	190.36789	-0.42165
4.48900	0.32812	-0.09655	190.46789	-0.42413
4.48900	0.32830	-0.03905	190.56790	-0.42513
4.48900	0.32847	-0.04435	190.66791	-0.42626
4.48900	0.32865	0.02375	190.76791	-0.42566
4.48900	0.32879	-0.06575	190.86792	-0.42734
4.48900	0.32899	-0.04005	190.96792	-0.42837
4.48900	0.32911	-0.05215	191.06793	-0.42971
4.48900	0.32933	-0.02105	191.16793	-0.43024
4.48900	0.32944	-0.07785	191.26794	-0.43224
4.48900	0.32967	-0.04895	191.36795	-0.43350
4.48900	0.32983	-0.07805	191.46795	-0.43550
4.48900	0.33001	0.00015	191.56796	-0.43549
4.48900	0.33020	-0.03545	191.66796	-0.43640
4.48900	0.33036	-0.04765	191.76797	-0.43762
4.48900	0.33052	-0.09075	191.86797	-0.43995
4.48900	0.33063	-0.04455	191.96798	-0.44109
4.48900	0.33086	-0.06395	192.06799	-0.44273
4.48900	0.33102	-0.04075	192.16799	-0.44378
4.48900	0.33120	-0.07425	192.26800	-0.44568
4.48900	0.33138	-0.04785	192.36800	-0.44691
4.48900	0.33155	-0.04645	192.46801	-0.44810
4.48900	0.33171	-0.00175	192.56801	-0.44814
4.48900	0.33191	-0.24165	192.66802	-0.45434
4.48900	0.33208	0.00785	192.76803	-0.45414
4.48900	0.33220	-0.02905	192.86803	-0.45488
4.48900	0.33241	0.12555	192.96804	-0.45166
4.48900	0.33254	-0.04175	193.06804	-0.45273
4.48900	0.33275	-0.01205	193.16805	-0.45304
4.48900	0.33294	-0.06125	193.26805	-0.45461
4.48900	0.33310	0.08345	193.36806	-0.45247
4.48900	0.33330	-0.03095	193.46807	-0.45327
4.48900	0.33346	-0.04855	193.56807	-0.45451
4.48900	0.33363	-0.05305	193.66808	-0.45587
4.48900	0.33376	-0.00185	193.76808	-0.45592
4.48900	0.33398	-0.07075	193.86809	-0.45773
4.48900	0.33411	-0.03645	193.96809	-0.45867
4.48900	0.33432	-0.05345	194.06810	-0.46004
4.48900	0.33448	-0.05565	194.16811	-0.46147
4.48900	0.33466	-0.12035	194.26811	-0.46455
4.48900	0.33483	-0.04415	194.36812	-0.46568
4.48900	0.33501	-0.05435	194.46812	-0.46708
4.48900	0.33520	-0.01955	194.56813	-0.46758
4.48900	0.33530	-0.05425	194.66813	-0.46897
4.48900	0.33555	0.02515	194.76814	-0.46832
4.48900	0.33565	-0.20335	194.86815	-0.47354
4.48900	0.33588	-0.02065	194.96815	-0.47407
4.48900	0.33606	-0.07565	195.06816	-0.47601
4.48900	0.33622	0.10585	195.16816	-0.47329
4.48900	0.33638	-0.05025	195.26817	-0.47458
4.48900	0.33654	0.03205	195.36817	-0.47376
4.48900	0.33673	-0.04535	195.46818	-0.47492
4.48900	0.33688	0.00155	195.56819	-0.47488
4.48900	0.33708	-0.12415	195.66819	-0.47807
4.48900	0.33721	-0.02805	195.76720	-0.47878
4.48900	0.33742	-0.06275	195.86720	-0.48039
4.48900	0.33763	-0.04765	195.96721	-0.48161
4.48900	0.33777	-0.05835	196.06721	-0.48311
4.48900	0.33794	-0.00205	196.16722	-0.48316
4.48900	0.33811	-0.05925	196.26723	-0.48468
4.48900	0.33828	-0.05315	196.36723	-0.48604
4.48900	0.33841	-0.04255	196.46724	-0.48713
4.48900	0.33862	-0.02865	196.56724	-0.48787
4.48900	0.33873	-0.07975	196.66725	-0.48991
4.48900	0.33895	-0.04525	196.76725	-0.49107
4.48900	0.33915	-0.07475	196.86726	-0.49299
4.48900	0.33931	0.53665	196.96727	-0.47923
4.48900	0.33948	-0.03305	197.06727	-0.48007
4.48900	0.33963	-0.02945	197.16728	-0.48083
4.48900	0.33980	-0.31115	197.26728	-0.48881
4.48900	0.33994	-0.02435	197.36729	-0.48943
4.48900	0.34016	-0.06665	197.46729	-0.49114
4.48900	0.34030	-0.06045	197.56730	-0.49269
4.48900	0.34051	-0.18025	197.66731	-0.49731
4.48900	0.34069	0.06165	197.76731	-0.49573
4.48900	0.34085	-0.02285	197.86732	-0.49632
4.48900	0.34104	0.01285	197.96732	-0.49599
4.48900	0.34122	-0.07835	198.06733	-0.49800
4.48900	0.34138	-0.00265	198.16733	-0.49806
4.48900	0.34151	-0.08135	198.26734	-0.50015
4.48900	0.34175	0.04405	198.36735	-0.49902
4.48900	0.34189	-0.06795	198.46735	-0.50076
4.48900	0.34210	0.00295	198.56736	-0.50069
4.48900	0.34224	-0.06525	198.66736	-0.50236
4.48900	0.34242	-0.04855	198.76737	-0.50360
4.48900	0.34260	-0.06085	198.86737	-0.50517
4.48900	0.34276	-0.02005	198.96738	-0.50568
4.48900	0.34294	-0.14845	199.06739	-0.50949
4.48900	0.34309	-0.02485	199.16739	-0.51012
4.48900	0.34329	-0.05965	199.26740	-0.51165
4.48900	0.34341	0.02785	199.36740	-0.51094
4.48900	0.34363	-0.19155	199.46741	-0.51585
4.48900	0.34381	-0.00265	199.56741	-0.51592
4.48900	0.34397	-0.12345	199.66742	-0.51908
4.48900	0.34413	-0.05145	199.76743	-0.52040
4.48900	0.34432	-0.04585	199.86743	-0.52158
4.48900	0.34448	-0.00785	199.96744	-0.52178
4.48900	0.34462	-0.06125	200.06744	-0.52335
4.48900	0.34483	-0.00805	200.16745	-0.52356
4.48900	0.34497	-0.14485	200.26745	-0.52727
4.48900	0.34518	-0.05055	200.36746	-0.52857
4.48900	0.34535	-0.05025	200.46747	-0.52985
4.48900	0.34551	0.10345	200.56747	-0.52720
4.48900	0.34568	-0.02645	200.66748	-0.52788
4.48900	0.34586	0.07675	200.76748	-0.52591
4.48900	0.34603	-0.07555	200.86749	-0.52785
4.48900	0.34617	-0.03035	200.96749	-0.52863
4.48900	0.34640	-0.13995	201.06750	-0.53222
4.48900	0.34650	-0.00115	201.16751	-0.53224
4.48900	0.34673	-0.15855	201.26751	-0.53631
4.48900	0.34690	-0.03945	201.36752	-0.53732
4.48900	0.34708	-0.07495	201.46752	-0.53924
4.48900	0.34725	0.09975	201.56753	-0.53669
4.48900	0.34741	-0.06085	201.66753	-0.53825
4.48900	0.34759	0.02795	201.76754	-0.53753
4.48900	0.34771	-0.13315	201.86755	-0.54094
4.48900	0.34797	-0.00535	201.96755	-0.54108
4.48900	0.34809	-0.06805	202.06756	-0.54283
4.48900	0.34828	-0.01445	202.16756	-0.54320
4.48900	0.34845	-0.05615	202.26757	-0.54464
4.48900	0.34860	0.04895	202.36757	-0.54338
4.48900	0.34879	-0.05685	202.46758	-0.54484
4.48900	0.34897	0.02265	202.56759	-0.54426
4.48900	0.34914	-0.14415	202.66759	-0.54795
4.48900	0.34927	-0.01155	202.76760	-0.54825
4.48900	0.34949	-0.04555	202.86760	-0.54942
4.48900	0.34963	-0.00925	202.96761	-0.54965
4.48900	0.34984	-0.19915	203.06762	-0.55476
4.48900	0.35004	-0.00215	203.16762	-0.55482
4.48900	0.35020	-0.04305	203.26763	-0.55592
4.48900	0.35035	0.00155	203.36763	-0.55588
4.48900	0.35054	-0.34295	203.46764	-0.56467
4.48900	0.35070	-0.03405	203.56764	-0.56555
4.48900	0.35083	-0.04395	203.66765	-0.56667
4.48900	0.35104	0.22445	203.76765	-0.56092
4.48900	0.35118	-0.06775	203.86766	-0.56266
4.48900	0.35140	-0.01965	203.96767	-0.56316
4.48900	0.35158	-0.04215	204.06767	-0.56424
4.48900	0.35175	0.14185	204.16768	-0.56060
4.48900	0.35192	-0.16035	204.26768	-0.56471
4.48900	0.35209	-0.00485	204.36769	-0.56484
4.48900	0.35225	-0.05295	204.46770	-0.56620
4.48900	0.35240	-0.04545	204.56770	-0.56736
4.48900	0.35259	-0.11215	204.66771	-0.57024
4.48900	0.35274	-0.00385	204.76771	-0.57034
4.48900	0.35293	-0.09835	204.86772	-0.57286
4.48900	0.35311	-0.02835	204.96772	-0.57358
4.48900	0.35330	-0.12085	205.06773	-0.57668
4.48900	0.35346	-0.05345	205.16774	-0.57805
4.48900	0.35366	-0.06045	205.26774	-0.57960
4.48900	0.35382	-0.02845	205.36775	-0.58033
4.48900	0.35394	-0.04365	205.46775	-0.58145
4.48900	0.35414	0.01335	205.56776	-0.58111
4.48900	0.35429	-0.16305	205.66776	-0.58529
4.48900	0.35449	-0.04105	205.76777	-0.58634
4.48900	0.35467	-0.09215	205.86777	-0.58871
4.48900	0.35482	0.12905	205.96778	-0.58540
4.48900	0.35503	-0.06705	206.06779	-0.58712
4.48900	0.35517	0.00975	206.16779	-0.58687
4.48900	0.35534	-0.08135	206.26780	-0.58895
4.48900	0.35547	-0.05285	206.36780	-0.59031
4.48900	0.35570	-0.16885	206.46781	-0.59464
4.48900	0.35584	-0.05635	206.56782	-0.59608
4.48900	0.35603	-0.07575	206.66782	-0.59802
4.48900	0.35621	-0.03215	206.76783	-0.59885
4.48900	0.35638	-0.04265	206.86783	-0.59994
4.48900	0.35655	0.08275	206.96784	-0.59782
4.48900	0.35674	-0.05405	207.06784	-0.59920
4.48900	0.35690	-0.02315	207.16785	-0.59980
4.48900	0.35704	-0.18705	207.26786	-0.60459
4.48900	0.35727	0.06135	207.36786	-0.60302
4.48900	0.35738	-0.05935	207.46787	-0.60454
4.48900	0.35760	0.00175	207.56787	-0.60450
4.48900	0.35775	-0.04055	207.66788	-0.60554
4.48900	0.35795	0.11355	207.76788	-0.60263
4.48900	0.35812	-0.07085	207.86789	-0.60444
4.48900	0.35827	-0.03255	207.96790	-0.60528
4.48900	0.35847	-0.13375	208.06790	-0.60871
4.48900	0.35858	-0.04375	208.16791	-0.60983
4.48900	0.35886	-0.08865	208.26791	-0.61210
4.48900	0.35894	-0.02205	208.36792	-0.61267
4.48900	0.35916	-0.24915	208.46792	-0.61906
4.48900	0.35933	-0.03645	208.56793	-0.61999
4.48900	0.35950	-0.06285	208.66794	-0.62160
4.48900	0.35970	-0.01035	208.76794	-0.62187
4.48900	0.35986	-0.38355	208.86795	-0.63170
4.48900	0.36004	0.01445	208.96795	-0.63133
4.48900	0.36016	-0.07045	209.06796	-0.63314
4.48900	0.36037	0.30455	209.16796	-0.62533
4.48900	0.36050	-0.07955	209.26797	-0.62737
4.48900	0.36071	-0.01975	209.36798	-0.62787
4.48900	0.36088	-0.06515	209.46798	-0.62954
4.48900	0.36103	0.17015	209.56799	-0.62518
4.48900	0.36120	-0.16275	209.66799	-0.62935
4.48900	0.36140	-0.04365	209.76800	-0.63047
4.48900	0.36157	-0.07585	209.86800	-0.63242
4.48900	0.36166	-0.02105	209.96801	-0.63296
4.48900	0.36192	-0.06605	210.06802	-0.63465
4.48900	0.36206	-0.01875	210.16802	-0.63513
4.48900	0.36200	-0.09475	210.26803	-0.63756
4.48900	0.36180	-0.02265	210.36803	-0.63814
4.48900	0.36168	-0.06565	210.46804	-0.63983
4.48900	0.36156	-0.02595	210.56804	-0.64049
4.48900	0.36140	-0.05015	210.66805	-0.64178
4.48900	0.36126	0.12515	210.76806	-0.63857
4.48900	0.36115	-0.01995	210.86806	-0.63908
4.48900	0.36096	0.01435	210.96807	-0.63871
4.48900	0.36085	-0.04825	211.06807	-0.63995
4.48900	0.36065	-0.04275	211.16808	-0.64104
4.48900	0.36047	-0.04765	211.26808	-0.64227
4.48900	0.36030	-0.03325	211.36809	-0.64312
4.48900	0.36017	-0.08185	211.46810	-0.64522
4.48900	0.35999	-0.07745	211.56810	-0.64720
4.48900	0.35979	-0.08335	211.66811	-0.64934
4.48900	0.35968	-0.03745	211.76811	-0.65030
4.48900	0.35946	-0.06775	211.86812	-0.65204
4.48900	0.35935	-0.00435	211.96812	-0.65215
4.48900	0.35915	-0.87115	212.06813	-0.67449
4.48900	0.35896	-0.00755	212.16814	-0.67468
4.48900	0.35875	-0.04515	212.26814	-0.67584
4.48900	0.35861	0.27605	212.36815	-0.66876
4.48900	0.35843	-0.08795	212.46815	-0.67102
4.48900	0.35822	-0.05095	212.56816	-0.67232
4.48900	0.35804	-0.05925	212.66816	-0.67384
4.48900	0.35786	0.19145	212.76817	-0.66893
4.48900	0.35778	-0.16635	212.86818	-0.67320
4.48900	0.35755	-0.00135	212.96818	-0.67323
4.48900	0.35737	-0.04545	213.06819	-0.67440
4.48900	0.35722	-0.00555	213.16819	-0.67454
4.48900	0.35702	-0.11135	213.26720	-0.67737
4.48900	0.35686	-0.01765	213.36720	-0.67782
4.48900	0.35669	-0.11665	213.46721	-0.68081
4.48900	0.35654	0.00075	213.56722	-0.68079
4.48900	0.35634	-0.16515	213.66722	-0.68502
4.48900	0.35620	-0.02895	213.76723	-0.68577
4.48900	0.35599	-0.04805	213.86723	-0.68700
4.48900	0.35580	0.01715	213.96724	-0.68656
4.48900	0.35562	-0.08125	214.06724	-0.68864
4.48900	0.35547	0.06565	214.16725	-0.68696
4.48900	0.35529	-0.34155	214.26726	-0.69572
4.48900	0.35512	-0.01285	214.36726	-0.69605
4.48900	0.35499	-0.11915	214.46727	-0.69910
4.48900	0.35477	0.20575	214.56727	-0.69383
4.48900	0.35464	-0.05655	214.66728	-0.69528
4.48900	0.35442	-0.00815	214.76728	-0.69548
4.48900	0.35423	-0.11905	214.86729	-0.69854
4.48900	0.35405	-0.03365	214.96730	-0.69940
4.48900	0.35388	-0.05345	215.06730	-0.70077
4.48900	0.35371	0.00565	215.16731	-0.70063
4.48900	0.35354	-0.18615	215.26731	-0.70540
4.48900	0.35343	-0.03655	215.36732	-0.70634
4.48900	0.35319	-0.07525	215.46732	-0.70827
4.48900	0.35307	0.10805	215.56733	-0.70549
4.48900	0.35284	-0.12725	215.66734	-0.70876
4.48900	0.35267	-0.02195	215.76734	-0.70932
4.48900	0.35250	-0.06085	215.86735	-0.71088
4.48900	0.35231	0.00505	215.96735	-0.71075
4.48900	0.35215	-0.05835	216.06736	-0.71225
4.48900	0.35198	-0.02165	216.16736	-0.71280
4.48900	0.35184	-0.08265	216.26737	-0.71492
4.48900	0.35163	0.98905	216.36738	-0.68956
4.48900	0.35145	-0.06675	216.46738	-0.69127
4.48900	0.35130	0.01335	216.56739	-0.69093
4.48900	0.35108	-0.44205	216.66739	-0.70226
4.48900	0.35092	-0.00195	216.76740	-0.70231
4.48900	0.35074	-0.07665	216.86740	-0.70428
4.48900	0.35057	-0.06215	216.96741	-0.70587
4.48900	0.35039	-0.29785	217.06742	-0.71351
4.48900	0.35025	0.03065	217.16742	-0.71272
4.48900	0.35004	-0.05325	217.26743	-0.71409
4.48900	0.34991	-0.03975	217.36743	-0.71511
4.48900	0.34969	-1.19925	217.46744	-0.74586
4.48900	0.34951	-0.02025	217.56744	-0.74638
4.48900	0.34934	-0.03975	217.66745	-0.74740
4.48900	0.34916	0.03945	217.76746	-0.74639
4.48900	0.34898	-0.08585	217.86746	-0.74859
4.48900	0.34879	0.02295	217.96747	-0.74800
4.48900	0.34867	-0.10795	218.06747	-0.75077
4.48900	0.34846	0.00845	218.16748	-0.75055
4.48900	0.34833	-0.10175	218.26748	-0.75316
4.48900	0.34811	0.02765	218.36749	-0.75245
4.48900	0.34794	-0.17255	218.46750	-0.75687
4.48900	0.34778	-0.04885	218.56750	-0.75813
4.48900	0.34759	-0.06705	218.66751	-0.75985
4.48900	0.34740	-0.00445	218.76751	-0.75996
4.48900	0.34724	-0.29925	218.86752	-0.76763
4.48900	0.34711	-0.03275	218.96752	-0.76847
4.48900	0.34688	-0.26105	219.06753	-0.77517
4.48900	0.34673	-0.01865	219.16754	-0.77565
4.48900	0.34651	-0.06655	219.26754	-0.77735
4.48900	0.34637	0.15915	219.36755	-0.77327
4.48900	0.34620	-0.06095	219.46755	-0.77483
4.48900	0.34601	0.02155	219.56756	-0.77428
4.48900	0.34586	-0.08235	219.66756	-0.77639
4.48900	0.34570	0.00265	219.76757	-0.77632
4.48900	0.34554	-0.09405	219.86758	-0.77874
4.48800	0.34534	0.00475	219.96758	-0.77861
4.48800	0.34520	-0.07035	220.06759	-0.78042
4.48800	0.34498	-0.03055	220.16759	-0.78120
4.48800	0.34482	-0.39665	220.26760	-0.79137
4.48800	0.34464	-0.03985	220.36760	-0.79239
4.48800	0.34445	-0.07445	220.46761	-0.79430
4.48900	0.34431	-0.00915	220.56762	-0.79454
4.48900	0.34413	-1.09375	220.66762	-0.82258
4.48800	0.34397	-0.01895	220.76763	-0.82307
4.48900	0.34377	-0.03965	220.86763	-0.82409
4.48900	0.34364	0.46355	220.96764	-0.81220
4.48800	0.34344	-0.10345	221.06764	-0.81485
4.48800	0.34326	-0.03385	221.16765	-0.81572
4.48800	0.34308	-0.05755	221.26766	-0.81720
4.48900	0.34293	0.25035	221.36766	-0.81078
4.48900	0.34274	-0.20675	221.46767	-0.81608
4.48800	0.34256	-0.03025	221.56767	-0.81685
4.48800	0.34242	-0.08435	221.66768	-0.81902
4.48800	0.34221	0.06225	221.76768	-0.81742
4.48800	0.34208	-0.09825	221.86769	-0.81994
4.48800	0.34186	-0.02195	221.96770	-0.82050
4.48900	0.34170	-1.02745	222.06770	-0.84685
4.48800	0.34150	-0.02005	222.16771	-0.84736
4.48800	0.34134	-0.08885	222.26771	-0.84964
4.48800	0.34118	0.02035	222.36772	-0.84912
4.48800	0.34101	-0.53965	222.46772	-0.86296
4.48800	0.34087	0.13465	222.56773	-0.85950
4.48800	0.34066	-0.07395	222.66774	-0.86140
4.48900	0.34052	-0.03155	222.76774	-0.86221
4.48900	0.34029	-0.11455	222.86775	-0.86514
4.48900	0.34013	-0.03015	222.96775	-0.86592
4.48800	0.33996	-0.08075	223.06776	-0.86799
4.48800	0.33976	0.07815	223.16776	-0.86598
4.48800	0.33959	-0.08495	223.26777	-0.86816
4.48800	0.33941	0.02665	223.36778	-0.86748
4.48800	0.33929	-0.09595	223.46778	-0.86994
4.48800	0.33908	-0.01915	223.56779	-0.87043
4.48800	0.33893	-0.10535	223.66779	-0.87313
4.48800	0.33874	-0.02055	223.76780	-0.87366
4.48800	0.33855	-0.09015	223.86780	-0.87597
4.48800	0.33840	0.22815	223.96781	-0.87012
4.48800	0.33822	-0.06515	224.06782	-0.87179
4.48800	0.33803	0.04015	224.16782	-0.87076
4.48800	0.33788	-0.33805	224.26783	-0.87943
4.48800	0.33772	-0.01965	224.36783	-0.87993
4.48800	0.33752	-0.12135	224.46784	-0.88304
4.48800	0.33738	-0.01285	224.56784	-0.88337
4.48900	0.33719	-0.06845	224.66785	-0.88513
4.48800	0.33700	0.00385	224.76786	-0.88503
4.48800	0.33683	-0.07965	224.86786	-0.88707
4.48800	0.33667	0.12875	224.96787	-0.88377
4.48800	0.33649	-0.07755	225.06787	-0.88576
4.48800	0.33633	0.01745	225.16788	-0.88531
4.48800	0.33621	-0.10345	225.26788	-0.88796
4.48800	0.33599	0.00395	225.36789	-0.88786
4.48800	0.33586	-0.03475	225.46790	-0.88875
4.48800	0.33566	-0.02485	225.56790	-0.88939
4.48800	0.33548	-0.35255	225.66791	-0.89843
4.48800	0.33529	-0.02615	225.76791	-0.89910
4.48800	0.33512	-0.03695	225.86792	-0.90005
4.48800	0.33495	0.00675	225.96792	-0.89988
4.48800	0.33476	-0.62265	226.06793	-0.91584
4.48800	0.33462	0.03715	226.16794	-0.91489
4.48800	0.33444	-0.02725	226.26794	-0.91559
4.48800	0.33429	0.48765	226.36795	-0.90308
4.48800	0.33408	-0.08545	226.46795	-0.90527
4.48800	0.33391	-0.01285	226.56796	-0.90560
4.48800	0.33374	-0.03645	226.66796	-0.90654
4.48800	0.33357	0.30735	226.76797	-0.89866
4.48800	0.33336	-0.21095	226.86798	-0.90407
4.48800	0.33322	-0.04345	226.96798	-0.90518
4.48800	0.33308	-0.06965	227.06799	-0.90697
4.48800	0.33286	-0.01875	227.16799	-0.90745
4.48800	0.33273	-0.11665	227.26800	-0.91044
4.48800	0.33251	-0.03385	227.36800	-0.91131
4.48800	0.33232	-0.96435	227.46801	-0.93603
4.48800	0.33218	-0.01835	227.56802	-0.93650
4.48800	0.33199	-0.12595	227.66802	-0.93973
4.48800	0.33181	0.00175	227.76803	-0.93969
4.48800	0.33166	-0.59905	227.86803	-0.95505
4.48800	0.33153	0.15365	227.96804	-0.95111
4.48800	0.33133	-0.04155	228.06804	-0.95217
4.48800	0.33117	0.00765	228.16805	-0.95198
4.48800	0.33095	-0.12175	228.26806	-0.95510
4.48800	0.33079	0.00475	228.36806	-0.95498
4.48800	0.33062	-0.05945	228.46807	-0.95650
4.48800	0.33044	0.09345	228.56807	-0.95411
4.48800	0.33026	-0.11385	228.66808	-0.95703
4.48800	0.33009	0.14815	228.76809	-0.95323
4.48800	0.32997	-0.05795	228.86809	-0.95471
4.48800	0.32976	0.00365	228.96810	-0.95462
4.48800	0.32964	-0.12475	229.06810	-0.95782
4.48800	0.32942	0.00265	229.16811	-0.95775
4.48800	0.32925	-0.21715	229.26811	-0.96332
4.48800	0.32908	-0.03625	229.36812	-0.96425
4.48800	0.32888	-0.08505	229.46812	-0.96643
4.48800	0.32872	0.02385	229.56813	-0.96582
4.48800	0.32855	-0.39045	229.66814	-0.97583
4.48800	0.32842	-0.03245	229.76814	-0.97666
4.48800	0.32820	-0.12205	229.86815	-0.97979
4.48800	0.32810	0.02675	229.96815	-0.97910
4.48800	0.32789	-0.04485	230.06816	-0.98025
4.48800	0.32771	0.27085	230.16817	-0.97331
4.48800	0.32752	-0.07605	230.26817	-0.97526
4.48800	0.32734	0.05615	230.36818	-0.97382
4.48800	0.32717	-0.10465	230.46818	-0.97650
4.48800	0.32700	-0.01545	230.56819	-0.97690
4.48800	0.32686	-0.34775	230.66819	-0.98581
4.48800	0.32666	-0.02475	230.76720	-0.98644
4.48800	0.32650	-0.13685	230.86721	-0.98995
4.48800	0.32630	0.18425	230.96721	-0.98523
4.48800	0.32615	-0.14905	231.06722	-0.98905
4.48800	0.32597	0.01385	231.16722	-0.98869
4.48800	0.32580	-0.05255	231.26723	-0.99004
4.48800	0.32561	0.03185	231.36723	-0.98922
4.48800	0.32546	-0.27325	231.46724	-0.99623
4.48800	0.32533	-0.02865	231.56725	-0.99697
4.48800	0.32512	-0.09025	231.66725	-0.99928
4.48800	0.32498	0.03715	231.76726	-0.99833
4.48800	0.32479	-0.09185	231.86726	-1.00068
4.48800	0.32459	-0.00975	231.96727	-1.00093
4.48800	0.32440	-0.07335	232.06727	-1.00281
4.48800	0.32425	0.03575	232.16728	-1.00190
4.48800	0.32407	-0.06335	232.26728	-1.00352
4.48800	0.32389	-0.04755	232.36729	-1.00474
4.48800	0.32377	-0.09155	232.46730	-1.00709
4.48800	0.32355	0.98775	232.56730	-0.98176
4.48800	0.32344	-0.08085	232.66731	-0.98383
4.48800	0.32320	-0.00465	232.76731	-0.98395
4.48800	0.32302	-0.70035	232.86732	-1.00191
4.48800	0.32284	0.03595	232.96733	-1.00099
4.48800	0.32267	-0.07035	233.06733	-1.00279
4.48800	0.32249	-0.00945	233.16734	-1.00303
4.48800	0.32232	-0.48215	233.26734	-1.01540
4.48800	0.32217	0.06785	233.36735	-1.01366
4.48800	0.32196	-0.11385	233.46735	-1.01658
4.48800	0.32181	-0.00745	233.56736	-1.01677
4.48800	0.32162	-0.14965	233.66737	-1.02060
4.48800	0.32147	0.01095	233.76737	-1.02032
4.48800	0.32129	-0.08985	233.86738	-1.02263
4.48800	0.32114	0.11225	233.96738	-1.01975
4.48800	0.32097	-0.11945	234.06739	-1.02281
4.48800	0.32077	0.06565	234.16739	-1.02113
4.48800	0.32063	-0.12465	234.26740	-1.02432
4.48800	0.32041	-0.00925	234.36741	-1.02456
4.48800	0.32029	-0.12955	234.46741	-1.02788
4.48800	0.32007	0.01745	234.56742	-1.02744
4.48800	0.31990	-0.16795	234.66742	-1.03174
4.48800	0.31975	0.21755	234.76743	-1.02616
4.48800	0.31956	-0.04985	234.86743	-1.02744
4.48800	0.31944	0.00075	234.96744	-1.02742
4.48700	0.31923	-0.21435	235.06745	-1.03292
4.48700	0.31910	0.04335	235.16745	-1.03181
4.48800	0.31890	-0.27715	235.26746	-1.03891
4.48800	0.31871	-0.03845	235.36746	-1.03990
4.48800	0.31854	-0.07675	235.46747	-1.04187
4.48800	0.31836	0.06705	235.56747	-1.04015
4.48800	0.31821	-0.13195	235.66748	-1.04353
4.48800	0.31803	0.20565	235.76749	-1.03826
4.48800	0.31790	-0.56435	235.86749	-1.05273
4.48800	0.31769	-0.01085	235.96750	-1.05301
4.48800	0.31755	-0.17455	236.06750	-1.05748
4.48800	0.31734	0.50755	236.16751	-1.04447
4.48800	0.31716	-0.06045	236.26751	-1.04602
4.48800	0.31699	0.09755	236.36752	-1.04352
4.48800	0.31681	-0.10815	236.46753	-1.04629
4.48800	0.31664	0.00165	236.56753	-1.04625
4.48800	0.31645	-0.03715	236.66754	-1.04720
4.48800	0.31633	0.02345	236.76754	-1.04660
4.48800	0.31613	-0.31035	236.86755	-1.05456
4.48800	0.31597	-0.02225	236.96755	-1.05513
4.48800	0.31574	-0.13545	237.06756	-1.05860
4.48800	0.31562	0.08285	237.16757	-1.05648
4.48800	0.31544	-0.12665	237.26757	-1.05972
4.48800	0.31527	-0.00665	237.36758	-1.05989
4.48800	0.31511	-0.05165	237.46758	-1.06122
4.48800	0.31493	0.02405	237.56759	-1.06060
4.48700	0.31479	-0.07935	237.66759	-1.06264
4.48800	0.31456	-0.02415	237.76760	-1.06325
4.48800	0.31440	-0.13015	237.86761	-1.06659
4.48800	0.31423	0.91485	237.96761	-1.04313
4.48800	0.31405	-0.12755	238.06762	-1.04640
4.48800	0.31389	0.01105	238.16762	-1.04612
4.48800	0.31373	-0.86405	238.26763	-1.06828
4.48800	0.31357	0.05405	238.36763	-1.06689
4.48800	0.31337	-0.07815	238.46764	-1.06889
4.48800	0.31319	-0.02215	238.56765	-1.06946
4.48800	0.31302	-0.54895	238.66765	-1.08354
4.48800	0.31284	0.10735	238.76766	-1.08079
4.48800	0.31267	-0.14865	238.86766	-1.08460
4.48800	0.31247	0.00025	238.96767	-1.08459
4.48800	0.31233	-0.13175	239.06767	-1.08797
4.48800	0.31215	0.03705	239.16768	-1.08702
4.48800	0.31203	-0.04225	239.26769	-1.08810
4.48800	0.31183	0.64725	239.36769	-1.07150
4.48800	0.31168	-0.05425	239.46770	-1.07290
4.48800	0.31143	0.08625	239.56770	-1.07068
4.48800	0.31125	-0.10945	239.66771	-1.07349
4.48700	0.31112	0.76925	239.76771	-1.05376
4.48700	0.31094	-0.33045	239.86772	-1.06224
4.48700	0.31077	-0.02555	239.96773	-1.06289
4.48700	0.31060	-0.08075	240.06773	-1.06496
4.48800	0.31049	0.08415	240.16774	-1.06281
4.48800	0.31027	-0.13485	240.26774	-1.06626
4.48700	0.31016	-0.03925	240.36775	-1.06727
4.48700	0.30991	-0.67015	240.46775	-1.08445
4.48800	0.30975	-0.01615	240.56776	-1.08487
4.48700	0.30959	-0.12775	240.66777	-1.08814
4.48700	0.30942	0.00025	240.76777	-1.08814
4.48700	0.30924	-0.06975	240.86778	-1.08993
4.48700	0.30906	0.35695	240.96778	-1.08077
4.48800	0.30891	-0.07525	241.06779	-1.08270
4.48800	0.30871	0.09885	241.16779	-1.08017
4.48800	0.30860	-0.38265	241.26780	-1.08998
4.48800	0.30838	-0.02315	241.36781	-1.09057
4.48700	0.30819	-0.08745	241.46781	-1.09282
4.48800	0.30803	0.11835	241.56782	-1.08978
4.48800	0.30786	-0.13345	241.66782	-1.09320
4.48700	0.30768	0.23085	241.76783	-1.08728
4.48700	0.30752	-0.06935	241.86783	-1.08906
4.48800	0.30738	0.03845	241.96784	-1.08807
4.48700	0.30716	-0.16235	242.06785	-1.09224
4.48800	0.30704	0.01545	242.16785	-1.09184
4.48800	0.30683	-0.29095	242.26786	-1.09930
4.48700	0.30664	0.58365	242.36786	-1.08434
4.48800	0.30646	-0.08495	242.46787	-1.08651
4.48800	0.30628	0.06985	242.56787	-1.08472
4.48800	0.30613	-0.54485	242.66788	-1.09869
4.48800	0.30596	-0.05995	242.76789	-1.10023
4.48700	0.30584	-0.45935	242.86789	-1.11201
4.48700	0.30563	-0.00825	242.96790	-1.11222
4.48700	0.30550	-0.17145	243.06790	-1.11662
4.48700	0.30527	0.27435	243.16791	-1.10958
4.48800	0.30509	-0.05925	243.26791	-1.11110
4.48700	0.30489	0.35115	243.36792	-1.10210
4.48700	0.30473	-0.08895	243.46793	-1.10438
4.48700	0.30456	0.09755	243.56793	-1.10188
4.48800	0.30439	-0.38845	243.66794	-1.11184
4.48700	0.30426	-0.03355	243.76794	-1.11270
4.48700	0.30407	-0.10565	243.86795	-1.11541
4.48700	0.30393	0.07565	243.96795	-1.11347
4.48700	0.30372	-0.11055	244.06796	-1.11630
4.48800	0.30352	-0.04035	244.16797	-1.11734
4.48700	0.30336	-0.47895	244.26797	-1.12962
4.48700	0.30320	-0.00675	244.36798	-1.12979
4.48700	0.30303	-0.19405	244.46798	-1.13477
4.48700	0.30286	0.02825	244.56799	-1.13404
4.48800	0.30271	-0.04485	244.66799	-1.13519
4.48700	0.30251	0.42535	244.76800	-1.12428
4.48700	0.30238	-0.10235	244.86801	-1.12691
4.48700	0.30216	0.06995	244.96801	-1.12511
4.48700	0.30198	-0.35225	245.06802	-1.13415
4.48700	0.30179	0.09465	245.16802	-1.13172
4.48700	0.30162	-0.06995	245.26803	-1.13351
4.48800	0.30146	-0.04165	245.36803	-1.13458
4.48700	0.30128	-0.11135	245.46804	-1.13744
4.48700	0.30115	0.09575	245.56805	-1.13498
4.48700	0.30094	-0.12405	245.66805	-1.13816
4.48700	0.30081	0.01585	245.76806	-1.13775
4.48700	0.30060	-0.15715	245.86806	-1.14178
4.48700	0.30041	0.03365	245.96807	-1.14092
4.48700	0.30025	-0.06255	246.06807	-1.14253
4.48700	0.30012	-0.02815	246.16808	-1.14325
4.48700	0.29999	-0.13025	246.26809	-1.14659
4.48800	0.29975	0.03285	246.36809	-1.14574
4.48800	0.29959	-0.03425	246.46810	-1.14662
4.48700	0.29943	0.07625	246.56810	-1.14467
4.48700	0.29926	-0.83055	246.66811	-1.16596
4.48700	0.29906	-0.01985	246.76811	-1.16647
4.48700	0.29890	-0.12465	246.86812	-1.16967
4.48700	0.29875	0.93975	246.96813	-1.14557
4.48700	0.29858	-0.15225	247.06813	-1.14948
4.48700	0.29843	-0.00055	247.16814	-1.14949
4.48700	0.29819	-0.09415	247.26814	-1.15190
4.48700	0.29809	0.56825	247.36815	-1.13733
4.48700	0.29786	-0.35465	247.46815	-1.14643
4.48700	0.29770	0.10645	247.56816	-1.14370
4.48700	0.29752	-0.09645	247.66817	-1.14617
4.48700	0.29733	0.10165	247.76817	-1.14356
4.48700	0.29716	-0.13265	247.86818	-1.14696
4.48700	0.29699	-0.00045	247.96818	-1.14698
4.48700	0.29686	-0.23595	248.06819	-1.15303
4.48700	0.29665	0.05445	248.16819	-1.15163
4.48700	0.29652	-0.17385	248.26720	-1.15604
4.48700	0.29632	0.04375	248.36721	-1.15492
4.48700	0.29617	-0.04635	248.46721	-1.15611
4.48700	0.29598	0.39725	248.56722	-1.14592
4.48700	0.29580	-0.07405	248.66722	-1.14782
4.48700	0.29563	0.04275	248.76723	-1.14673
4.48700	0.29547	-0.19375	248.86723	-1.15169
4.48700	0.29534	0.04715	248.96724	-1.15048
4.48700	0.29513	-0.07215	249.06725	-1.15233
4.48700	0.29502	0.18535	249.16725	-1.14758
4.48700	0.29479	-0.15295	249.26726	-1.15150
4.48700	0.29461	0.11975	249.36726	-1.14843
4.48700	0.29444	-0.11865	249.46727	-1.15147
4.48700	0.29427	1.05785	249.56727	-1.12435
4.48700	0.29410	-0.43325	249.66728	-1.13546
4.48700	0.29393	-0.02035	249.76729	-1.13598
4.48700	0.29381	-0.10555	249.86729	-1.13869
4.48700	0.29358	0.12745	249.96730	-1.13542
4.48700	0.29346	-0.13115	250.06730	-1.13878
4.48700	0.29324	0.01455	250.16731	-1.13841
4.48700	0.29306	-0.53825	250.26731	-1.15221
4.48700	0.29290	0.00055	250.36732	-1.15220
4.48700	0.29270	-0.18835	250.46733	-1.15703
4.48700	0.29255	0.05085	250.56733	-1.15572
4.48700	0.29236	-1.18305	250.66734	-1.18606
4.48700	0.29224	0.40575	250.76734	-1.17565
4.48700	0.29203	-0.06655	250.86735	-1.17736
4.48700	0.29190	0.03485	250.96735	-1.17647
4.48700	0.29172	-0.22855	251.06736	-1.18233
4.48700	0.29151	0.08575	251.16737	-1.18013
4.48700	0.29133	-0.11615	251.26737	-1.18311
4.48700	0.29117	0.21845	251.36738	-1.17750
4.48700	0.29100	-0.14625	251.46738	-1.18125
4.48700	0.29082	0.35725	251.56739	-1.17209
4.48700	0.29071	-0.22245	251.66739	-1.17780
4.48700	0.29049	0.01835	251.76740	-1.17733
4.48700	0.29034	-0.22785	251.86741	-1.18317
4.48700	0.29012	0.06175	251.96741	-1.18159
4.48700	0.28995	-0.41335	252.06742	-1.19218
4.48700	0.28979	-0.00615	252.16742	-1.19234
4.48700	0.28965	-0.10805	252.26743	-1.19511
4.48700	0.28944	0.16605	252.36743	-1.19085
4.48700	0.28928	-0.94395	252.46744	-1.21506
4.48700	0.28916	0.00795	252.56745	-1.21486
4.48700	0.28893	-0.22085	252.66745	-1.22052
4.48700	0.28876	0.08355	252.76746	-1.21838
4.48700	0.28858	-0.10075	252.86746	-1.22096
4.48700	0.28841	-0.00865	252.96747	-1.22118
4.48700	0.28824	-0.15795	253.06747	-1.22523
4.48700	0.28805	0.38155	253.16748	-1.21545
4.48700	0.28789	-0.08175	253.26749	-1.21754
4.48700	0.28772	0.05015	253.36749	-1.21626
4.48700	0.28758	-0.42225	253.46750	-1.22708
4.48700	0.28735	-0.01325	253.56750	-1.22742
4.48700	0.28724	-0.12335	253.66751	-1.23059
4.48700	0.28702	-0.03645	253.76751	-1.23152
4.48700	0.28685	-0.14565	253.86752	-1.23526
4.48700	0.28666	0.01855	253.96753	-1.23478
4.48700	0.28649	-0.05995	254.06753	-1.23632
4.48700	0.28632	0.07175	254.16754	-1.23448
4.48700	0.28616	-0.62815	254.26754	-1.25059
4.48700	0.28603	0.15025	254.36755	-1.24673
4.48700	0.28583	-0.10715	254.46756	-1.24948
4.48700	0.28568	1.06415	254.56756	-1.22219
4.48700	0.28545	-0.15175	254.66757	-1.22608
4.48700	0.28528	0.01275	254.76757	-1.22576
4.48700	0.28513	-0.08545	254.86758	-1.22795
4.48700	0.28494	0.83885	254.96758	-1.20644
4.48700	0.28477	-0.43575	255.06759	-1.21761
4.48700	0.28461	0.14365	255.16759	-1.21393
4.48700	0.28447	-0.09915	255.26760	-1.21647
4.48700	0.28426	0.15665	255.36761	-1.21245
4.48700	0.28414	-0.16345	255.46761	-1.21664
4.48700	0.28391	-0.02995	255.56762	-1.21741
4.48700	0.28375	-0.14505	255.66762	-1.22113
4.48700	0.28358	0.02115	255.76763	-1.22059
4.48700	0.28342	-0.18035	255.86763	-1.22521
4.48700	0.28326	0.04645	255.96764	-1.22402
4.48700	0.28308	-0.05765	256.06765	-1.22550
4.48700	0.28293	0.58845	256.16765	-1.21041
4.48700	0.28270	-0.11525	256.26766	-1.21337
4.48700	0.28259	0.12825	256.36766	-1.21008
4.48700	0.28238	-0.70555	256.46767	-1.22817
4.48700	0.28221	0.06115	256.56768	-1.22660
4.48700	0.28203	-0.20755	256.66768	-1.23192
4.48700	0.28184	0.65155	256.76769	-1.21522
4.48700	0.28167	-0.08315	256.86769	-1.21735
4.48700	0.28151	0.59505	256.96770	-1.20209
4.48700	0.28137	-0.08645	257.06770	-1.20431
4.48700	0.28117	0.01615	257.16771	-1.20389
4.48700	0.28102	-0.57135	257.26771	-1.21854
4.48700	0.28081	-0.02755	257.36772	-1.21925
4.48700	0.28065	-0.56435	257.46773	-1.23372
4.48700	0.28047	0.01495	257.56773	-1.23334
4.48700	0.28029	-0.13855	257.66774	-1.23689
4.48700	0.28014	0.13415	257.76774	-1.23345
4.48700	0.27997	-1.03205	257.86775	-1.25991
4.48700	0.27983	0.04095	257.96775	-1.25886
4.48700	0.27963	-0.21335	258.06776	-1.26433
4.48700	0.27948	0.09015	258.16777	-1.26202
4.48700	0.27927	-0.10945	258.26777	-1.26483
4.48700	0.27908	-0.01675	258.36778	-1.26526
4.48700	0.27890	-0.17065	258.46778	-1.26963
4.48700	0.27873	0.43885	258.56779	-1.25838
4.48700	0.27857	-0.07815	258.66780	-1.26038
4.48700	0.27839	0.09175	258.76780	-1.25803
4.48700	0.27825	-0.25215	258.86781	-1.26450
4.48700	0.27805	0.11455	258.96781	-1.26156
4.48700	0.27788	-0.06755	259.06782	-1.26329
4.48700	0.27771	0.02385	259.16782	-1.26268
4.48700	0.27751	-0.14905	259.26783	-1.26650
4.48700	0.27735	0.02775	259.36784	-1.26579
4.48700	0.27718	-0.09025	259.46784	-1.26810
4.48700	0.27701	-0.21025	259.56785	-1.27349
4.48700	0.27684	-0.51475	259.66785	-1.28669
4.48700	0.27670	-0.01775	259.76786	-1.28715
4.48700	0.27650	-0.17115	259.86786	-1.29154
4.48700	0.27639	1.01525	259.96787	-1.26550
4.48700	0.27616	-0.18245	260.06788	-1.27018
4.48700	0.27598	0.05355	260.16788	-1.26881
4.48700	0.27580	-0.05565	260.26789	-1.27024
4.48700	0.27562	0.92475	260.36789	-1.24652
4.48700	0.27546	-0.53035	260.46790	-1.26012
4.48700	0.27529	0.15595	260.56790	-1.25612
4.48700	0.27516	-0.11055	260.66791	-1.25896
4.48700	0.27493	0.18085	260.76792	-1.25432
4.48700	0.27481	-0.19335	260.86792	-1.25928
4.48700	0.27460	0.00305	260.96793	-1.25920
4.48700	0.27445	-0.02265	261.06793	-1.25978
4.48700	0.27423	0.01345	261.16794	-1.25944
4.48700	0.27409	-0.21795	261.26794	-1.26502
4.48700	0.27391	0.07095	261.36795	-1.26320
4.48700	0.27374	-0.06505	261.46796	-1.26487
4.48700	0.27361	0.66535	261.56796	-1.24781
4.48700	0.27341	-0.08995	261.66797	-1.25012
4.48700	0.27329	0.25245	261.76797	-1.24364
4.48700	0.27308	-0.63405	261.86798	-1.25990
4.48700	0.27289	0.02045	261.96798	-1.25938
4.48700	0.27271	-0.23435	262.06799	-1.26539
4.48700	0.27254	0.92315	262.16800	-1.24172
4.48700	0.27238	-0.12515	262.26800	-1.24492
4.48700	0.27219	0.15025	262.36801	-1.24107
4.48700	0.27206	-0.19105	262.46801	-1.24597
4.48700	0.27189	0.00715	262.56802	-1.24579
4.48700	0.27170	-0.78825	262.66802	-1.26600
4.48700	0.27152	0.04645	262.76803	-1.26481
4.48700	0.27134	-0.20295	262.86804	-1.27001
4.48700	0.27118	0.08615	262.96804	-1.26780
4.48700	0.27098	-0.08485	263.06805	-1.26998
4.48700	0.27081	0.18935	263.16805	-1.26512
4.48700	0.27064	-0.18895	263.26806	-1.26997
4.48700	0.27051	0.04655	263.36806	-1.26877
4.48700	0.27030	-0.06875	263.46807	-1.27054
4.48700	0.27015	0.09665	263.56808	-1.26806
4.48700	0.26995	-0.09435	263.66808	-1.27048
4.48700	0.26973	-0.00575	263.76809	-1.27063
4.48700	0.26959	-0.18535	263.86809	-1.27538
4.48700	0.26943	0.32685	263.96810	-1.26700
4.48700	0.26927	-0.27385	264.06810	-1.27402
4.48700	0.26909	0.02365	264.16811	-1.27341
4.48700	0.26895	-1.01285	264.26812	-1.29938
4.48700	0.26877	0.14095	264.36812	-1.29577
4.48700	0.26861	-0.12505	264.46813	-1.29898
4.48700	0.26839	-0.00185	264.56813	-1.29902
4.48700	0.26823	-1.13415	264.66814	-1.32811
4.48700	0.26805	0.47485	264.76814	-1.31593
4.48700	0.26786	-0.08355	264.86815	-1.31807
4.48700	0.26771	0.05705	264.96816	-1.31661
4.48700	0.26751	-0.26575	265.06816	-1.32342
4.48700	0.26738	0.10285	265.16817	-1.32079
4.48700	0.26716	-0.08495	265.26817	-1.32296
4.48700	0.26703	0.02295	265.36818	-1.32238
4.48700	0.26685	-0.08435	265.46818	-1.32454
4.48700	0.26666	0.15775	265.56819	-1.32049
4.48700	0.26647	-0.16335	265.66720	-1.32464
4.48700	0.26633	0.00635	265.76720	-1.32448
4.48700	0.26620	-0.75305	265.86721	-1.34379
4.48700	0.26599	0.01035	265.96721	-1.34352
4.48700	0.26587	-0.16245	266.06722	-1.34769
4.48700	0.26564	0.25845	266.16722	-1.34106
4.48700	0.26544	-0.20585	266.26723	-1.34634
4.48700	0.26529	0.03235	266.36724	-1.34551
4.48700	0.26511	-0.38265	266.46724	-1.35532
4.48700	0.26495	0.13705	266.56725	-1.35181
4.48700	0.26479	-0.64095	266.66725	-1.36824
4.48700	0.26465	0.23095	266.76726	-1.36232
4.48700	0.26443	-0.12435	266.86726	-1.36551
4.48700	0.26430	0.22835	266.96727	-1.35965
4.48700	0.26409	-0.18505	267.06728	-1.36440
4.48700	0.26395	0.27855	267.16728	-1.35725
4.48700	0.26376	-1.04865	267.26729	-1.38414
4.48700	0.26360	0.06295	267.36729	-1.38253
4.48700	0.26341	-0.32035	267.46730	-1.39074
4.48700	0.26323	0.00485	267.56730	-1.39062
4.48700	0.26312	-0.13895	267.66731	-1.39418
4.48700	0.26290	0.26745	267.76732	-1.38732
4.48700	0.26275	-0.23565	267.86732	-1.39337
4.48700	0.26254	0.07815	267.96733	-1.39136
4.48700	0.26236	-0.09935	268.06733	-1.39391
4.48700	0.26220	0.09975	268.16734	-1.39135
4.48700	0.26203	-0.62565	268.26734	-1.40740
4.48700	0.26186	0.03155	268.36735	-1.40659
4.48700	0.26168	-0.22475	268.46736	-1.41235
4.48700	0.26155	0.59105	268.56736	-1.39719
4.48700	0.26135	-0.05905	268.66737	-1.39871
4.48700	0.26120	0.10995	268.76737	-1.39589
4.48700	0.26096	-0.08695	268.86738	-1.39812
4.48700	0.26081	1.08635	268.96738	-1.37026
4.48700	0.26064	-0.10875	269.06739	-1.37305
4.48700	0.26046	0.00675	269.16740	-1.37288
4.48700	0.26030	-0.17715	269.26740	-1.37742
4.48700	0.26014	0.83555	269.36741	-1.35599
4.48700	0.26000	-0.24685	269.46741	-1.36232
4.48700	0.25980	0.06075	269.56742	-1.36076
4.48700	0.25967	-0.91735	269.66742	-1.38429
4.48700	0.25945	0.14915	269.76743	-1.38046
4.48700	0.25927	-0.07015	269.86744	-1.38226
4.48700	0.25910	0.11715	269.96744	-1.37926
4.48700	0.25892	-0.31495	270.06745	-1.38733
4.48700	0.25877	0.08345	270.16745	-1.38519
4.48700	0.25860	-0.07515	270.26746	-1.38712
4.48700	0.25846	0.17615	270.36746	-1.38260
4.48700	0.25823	-0.00615	270.46747	-1.38276
4.48700	0.25809	0.28055	270.56748	-1.37557
4.48700	0.25789	-0.14485	270.66748	-1.37928
4.48700	0.25770	0.84115	270.76749	-1.35771
4.48700	0.25754	-0.22785	270.86749	-1.36355
4.48700	0.25739	0.06965	270.96750	-1.36177
4.48700	0.25722	-0.08115	271.06750	-1.36385
4.48700	0.25702	1.06595	271.16751	-1.33652
4.48700	0.25692	-0.69985	271.26752	-1.35446
4.48700	0.25677	0.02195	271.36752	-1.35390
4.48700	0.25655	-0.17855	271.46753	-1.35848
4.48700	0.25636	0.24385	271.56753	-1.35222
4.48700	0.25617	-0.25165	271.66754	-1.35868
4.48700	0.25600	0.06905	271.76754	-1.35691
4.48700	0.25584	-0.48445	271.86755	-1.36933
4.48700	0.25567	0.17985	271.96756	-1.36472
4.48700	0.25549	-0.73445	272.06756	-1.38355
4.48700	0.25535	0.01005	272.16757	-1.38329
4.48700	0.25514	-0.16155	272.26757	-1.38743
4.48700	0.25500	0.27975	272.36758	-1.38026
4.48700	0.25480	-0.26225	272.46758	-1.38698
4.48700	0.25463	0.70235	272.56759	-1.36897
4.48700	0.25440	-1.07225	272.66760	-1.39647
4.48700	0.25426	0.08845	272.76760	-1.39420
4.48700	0.25410	-0.36485	272.86761	-1.40356
4.48700	0.25394	0.96905	272.96761	-1.37871
4.48700	0.25381	-0.13235	273.06762	-1.38210
4.48700	0.25360	0.27985	273.16762	-1.37493
4.48700	0.25342	-0.22735	273.26763	-1.38075
4.48700	0.25325	0.05965	273.36764	-1.37923
4.48700	0.25308	-0.12445	273.46764	-1.38242
4.48700	0.25290	0.14315	273.56765	-1.37875
4.48700	0.25273	-0.36025	273.66765	-1.38798
4.48700	0.25253	0.15065	273.76766	-1.38412
4.48700	0.25234	-0.15725	273.86766	-1.38815
4.48700	0.25225	0.29945	273.96767	-1.38047
4.48700	0.25201	-0.24185	274.06768	-1.38667
4.48700	0.25188	0.06155	274.16768	-1.38510
4.48700	0.25168	-0.12175	274.26769	-1.38822
4.48700	0.25150	0.15455	274.36769	-1.38426
4.48700	0.25133	-0.12195	274.46770	-1.38738
4.48700	0.25117	0.00835	274.56770	-1.38717
4.48700	0.25097	-0.24115	274.66771	-1.39335
4.48700	0.25083	-0.04215	274.76772	-1.39443
4.48700	0.25069	-0.08855	274.86772	-1.39670
4.48700	0.25046	0.11435	274.96773	-1.39377
4.48700	0.25030	-0.86475	275.06773	-1.41594
4.48700	0.25017	0.21735	275.16774	-1.41037
4.48700	0.24996	-0.14125	275.26774	-1.41399
4.48700	0.24977	0.05745	275.36775	-1.41252
4.48700	0.24961	-1.06495	275.46776	-1.43983
4.48700	0.24945	0.79315	275.56776	-1.41949
4.48700	0.24928	-0.06515	275.66777	-1.42116
4.48700	0.24914	0.12105	275.76777	-1.41806
4.48700	0.24892	-0.39105	275.86778	-1.42808
4.48700	0.24880	0.18885	275.96778	-1.42324
4.48700	0.24859	-0.15135	276.06779	-1.42712
4.48700	0.24840	0.44605	276.16780	-1.41568
4.48700	0.24822	-0.24915	276.26780	-1.42207
4.48700	0.24805	0.77265	276.36781	-1.40226
4.48700	0.24789	-0.10145	276.46781	-1.40486
4.48700	0.24770	0.12405	276.56782	-1.40168
4.48700	0.24756	-0.37635	276.66782	-1.41133
4.48700	0.24737	0.20925	276.76783	-1.40596
4.48700	0.24723	-0.82685	276.86784	-1.42717
4.48700	0.24703	0.94445	276.96784	-1.40295
4.48700	0.24685	-0.15855	277.06785	-1.40701
4.48700	0.24668	0.30545	277.16785	-1.39918
4.48700	0.24649	-0.06985	277.26786	-1.40097
4.48700	0.24633	0.11225	277.36786	-1.39809
4.48700	0.24616	-0.37445	277.46787	-1.40770
4.48700	0.24603	0.19235	277.56788	-1.40276
4.48700	0.24581	-0.16235	277.66788	-1.40693
4.48700	0.24571	0.02505	277.76789	-1.40628
4.48700	0.24548	-0.27175	277.86789	-1.41325
4.48700	0.24529	0.81885	277.96790	-1.39225
4.48700	0.24516	-0.12075	278.06790	-1.39535
4.48700	0.24498	0.19875	278.16791	-1.39025
4.48700	0.24484	-0.84605	278.26792	-1.41195
4.48700	0.24462	0.00315	278.36792	-1.41187
4.48700	0.24448	-0.18915	278.46793	-1.41672
4.48700	0.24429	0.03355	278.56793	-1.41586
4.48700	0.24412	-1.05655	278.66794	-1.44295
4.48700	0.24394	0.04605	278.76794	-1.44177
4.48700	0.24376	-0.10645	278.86795	-1.44450
4.48700	0.24361	0.18945	278.96796	-1.43964
4.48700	0.24343	-0.71915	279.06796	-1.45808
4.48700	0.24329	0.21255	279.16797	-1.45263
4.48700	0.24307	-0.17605	279.26797	-1.45714
4.48700	0.24295	0.62615	279.36798	-1.44109
4.48700	0.24273	-0.26075	279.46798	-1.44777
4.48700	0.24254	0.08865	279.56799	-1.44550
4.48700	0.24240	-0.09505	279.66800	-1.44794
4.48700	0.24220	0.97195	279.76800	-1.42302
4.48700	0.24203	-0.89885	279.86801	-1.44606
4.48700	0.24187	0.31495	279.96801	-1.43799
4.48700	0.24174	-0.14555	280.06802	-1.44172
4.48700	0.24151	0.36365	280.16803	-1.43239
4.48700	0.24141	-0.27735	280.26803	-1.43951
4.48700	0.24120	0.07455	280.36804	-1.43760
4.48700	0.24101	-0.52395	280.46804	-1.45103
4.48700	0.24083	0.18635	280.56805	-1.44625
4.48700	0.24064	-0.91665	280.66805	-1.46976
4.48700	0.24050	0.02845	280.76806	-1.46903
4.48700	0.24032	-0.17675	280.86806	-1.47356
4.48700	0.24017	0.34825	280.96807	-1.46463
4.48700	0.23997	-0.27525	281.06808	-1.47169
4.48700	0.23984	0.35605	281.16808	-1.46256
4.48700	0.23963	-1.12745	281.26809	-1.49147
4.48700	0.23943	0.09685	281.36809	-1.48898
4.48700	0.23928	-0.41555	281.46810	-1.49964
4.48700	0.23914	0.84685	281.56810	-1.47792
4.48700	0.23893	-0.13555	281.66811	-1.48140
4.48700	0.23875	0.32765	281.76812	-1.47300
4.48700	0.23864	-0.28885	281.86812	-1.48040
4.48700	0.23843	0.09465	281.96813	-1.47798
4.48700	0.23829	-0.12255	282.06813	-1.48112
4.48700	0.23806	0.21755	282.16814	-1.47554
4.48700	0.23790	-0.91935	282.26815	-1.49912
4.48700	0.23775	0.00365	282.36815	-1.49902
4.48700	0.23756	-0.33585	282.46816	-1.50763
4.48700	0.23740	0.84115	282.56816	-1.48606
4.48700	0.23722	-0.40035	282.66817	-1.49633
4.48700	0.23708	0.11535	282.76817	-1.49337
4.48700	0.23687	-0.09365	282.86818	-1.49577
4.48700	0.23675	0.24815	282.96818	-1.48941
4.48700	0.23653	-0.14635	283.06819	-1.49316
4.48700	0.23636	0.08325	283.16720	-1.49105
4.48700	0.23619	-0.30765	283.26720	-1.49894
4.48700	0.23603	0.49015	283.36721	-1.48637
4.48700	0.23584	-0.31305	283.46721	-1.49440
4.48700	0.23567	0.02705	283.56722	-1.49370
4.48700	0.23555	-1.10445	283.66722	-1.52202
4.48700	0.23533	0.09495	283.76723	-1.51959
4.48700	0.23518	-0.46385	283.86724	-1.53148
4.48700	0.23497	0.20175	283.96724	-1.52631
4.48700	0.23485	-0.49625	284.06725	-1.53903
4.48700	0.23463	0.17485	284.16725	-1.53455
4.48700	0.23446	-0.11095	284.26726	-1.53740
4.48700	0.23428	0.22605	284.36726	-1.53160
4.48700	0.23411	-0.50585	284.46727	-1.54457
4.48700	0.23395	0.32185	284.56728	-1.53632
4.48700	0.23376	-0.18035	284.66728	-1.54094
4.48700	0.23363	0.43125	284.76729	-1.52988
4.48700	0.23340	-0.38175	284.86729	-1.53967
4.48700	0.23323	0.10805	284.96730	-1.53690
4.48700	0.23307	-0.09705	285.06731	-1.53939
4.48700	0.23289	0.84745	285.16731	-1.51766
4.48700	0.23270	-1.06055	285.26732	-1.54485
4.48700	0.23255	0.04935	285.36732	-1.54359
4.48700	0.23241	-0.26555	285.46733	-1.55040
4.48700	0.23220	0.46375	285.56733	-1.53851
4.48700	0.23206	-0.34405	285.66734	-1.54733
4.48700	0.23188	0.12125	285.76734	-1.54422
4.48700	0.23170	-0.65505	285.86735	-1.56102
4.48700	0.23152	0.25175	285.96736	-1.55456
4.48700	0.23136	-1.07675	286.06736	-1.58217
4.48700	0.23121	0.43315	286.16737	-1.57106
4.48700	0.23099	-0.18555	286.26737	-1.57582
4.48700	0.23086	0.42085	286.36738	-1.56503
4.48700	0.23067	-0.31635	286.46739	-1.57314
4.48700	0.23050	1.01955	286.56739	-1.54700
4.48700	0.23029	-0.10845	286.66740	-1.54978
4.48700	0.23014	0.20345	286.76740	-1.54456
4.48700	0.22997	-0.48345	286.86741	-1.55696
4.48700	0.22982	0.91355	286.96741	-1.53353
4.48700	0.22969	-0.12225	287.06742	-1.53667
4.48700	0.22948	1.11245	287.16743	-1.50814
4.48700	0.22934	-0.11235	287.26743	-1.51102
4.48700	0.22914	0.15335	287.36744	-1.50709
4.48700	0.22893	-0.51635	287.46744	-1.52033
4.48700	0.22877	0.27585	287.56745	-1.51326
4.48700	0.22860	-1.07955	287.66745	-1.54094
4.48700	0.22844	0.00775	287.76746	-1.54074
4.48700	0.22825	-0.22355	287.86747	-1.54647
4.48700	0.22818	0.48685	287.96747	-1.53399
4.48700	0.22795	-0.08325	288.06748	-1.53612
4.48700	0.22780	0.13205	288.16748	-1.53274
4.48700	0.22757	-0.56475	288.26749	-1.54722
4.48700	0.22740	0.27265	288.36749	-1.54023
4.48700	0.22722	-0.22105	288.46750	-1.54589
4.48700	0.22705	0.05915	288.56751	-1.54438
4.48700	0.22689	-0.34455	288.66751	-1.55321
4.48700	0.22672	0.45615	288.76752	-1.54152
4.48700	0.22658	-0.36085	288.86752	-1.55077
4.48700	0.22636	0.11835	288.96753	-1.54773
4.48700	0.22622	-0.50585	289.06753	-1.56070
4.48700	0.22608	0.27995	289.16754	-1.55353
4.48700	0.22586	-0.09505	289.26755	-1.55596
4.48700	0.22568	1.04165	289.36755	-1.52925
4.48700	0.22550	-0.54795	289.46756	-1.54330
4.48700	0.22533	0.22715	289.56756	-1.53748
4.48700	0.22516	-0.12825	289.66757	-1.54077
4.48700	0.22503	0.29975	289.76757	-1.53308
4.48700	0.22481	-1.15865	289.86758	-1.56279
4.48700	0.22468	0.06705	289.96759	-1.56107
4.48700	0.22447	-0.38985	290.06759	-1.57107
4.48700	0.22429	1.10305	290.16760	-1.54278
4.48700	0.22411	-0.57105	290.26760	-1.55743
4.48700	0.22394	0.14775	290.36761	-1.55364
4.48700	0.22378	-0.13995	290.46761	-1.55723
4.48700	0.22361	0.31825	290.56762	-1.54907
4.48700	0.22346	-0.20825	290.66763	-1.55440
4.48700	0.22326	0.06815	290.76763	-1.55266
4.48700	0.22310	-0.39875	290.86764	-1.56288
4.48700	0.22292	-0.06125	290.96764	-1.56445
4.48700	0.22272	-0.51195	291.06765	-1.57758
4.48700	0.22258	0.15095	291.16765	-1.57371
4.48700	0.22239	-0.33275	291.26766	-1.58224
4.48700	0.22221	0.34865	291.36767	-1.57330
4.48700	0.22204	-0.20385	291.46767	-1.57853
4.48700	0.22191	0.06045	291.56768	-1.57698
4.48700	0.22171	-0.70425	291.66768	-1.59504
4.48700	0.22155	1.05495	291.76769	-1.56799
4.48700	0.22135	-0.54795	291.86769	-1.58204
4.48700	0.22119	0.15015	291.96770	-1.57819
4.48700	0.22100	-0.60285	292.06771	-1.59364
4.48700	0.22082	0.31885	292.16771	-1.58547
4.48700	0.22064	-0.13155	292.26772	-1.58884
4.48700	0.22050	-0.04025	292.36772	-1.58987
4.48700	0.22037	-0.19595	292.46773	-1.59490
4.48700	0.22016	0.41935	292.56773	-1.58414
4.48700	0.22001	-0.35165	292.66774	-1.59316
4.48700	0.21980	0.23495	292.76775	-1.58714
4.48700	0.21963	-1.11075	292.86775	-1.61562
4.48700	0.21951	0.02725	292.96776	-1.61492
4.48700	0.21928	-0.29135	293.06776	-1.62239
4.48700	0.21912	0.49145	293.16777	-1.60979
4.48600	0.21893	-0.39665	293.26777	-1.61996
4.48700	0.21881	0.16205	293.36778	-1.61580
4.48700	0.21859	-0.83635	293.46779	-1.63725
4.48700	0.21846	0.32065	293.56779	-1.62903
4.48700	0.21825	-1.13565	293.66780	-1.65815
4.48700	0.21807	0.54305	293.76780	-1.64422
4.48700	0.21789	-0.22245	293.86781	-1.64993
4.48700	0.21773	0.49845	293.96781	-1.63715
4.48700	0.21756	-0.39075	294.06782	-1.64717
4.48700	0.21737	1.04875	294.16783	-1.62027
4.48700	0.21723	-0.65335	294.26783	-1.63703
4.48700	0.21706	0.19785	294.36784	-1.63195
4.48700	0.21690	-0.56235	294.46784	-1.64637
4.48700	0.21669	0.75475	294.56785	-1.62702
4.48700	0.21653	-0.12025	294.66785	-1.63010
4.48700	0.21634	0.98665	294.76786	-1.60480
4.48700	0.21616	-0.15425	294.86787	-1.60876
4.48700	0.21601	0.22075	294.96787	-1.60310
4.48700	0.21582	-0.69055	295.06788	-1.62080
4.48700	0.21571	0.35945	295.16788	-1.61159
4.48700	0.21550	-1.11815	295.26789	-1.64026
4.48700	0.21535	0.56425	295.36789	-1.62579
4.48700	0.21514	-0.23255	295.46790	-1.63175
4.48700	0.21499	0.53225	295.56791	-1.61810
4.48700	0.21480	-0.56525	295.66791	-1.63260
4.48700	0.21462	0.16635	295.76792	-1.62833
4.48700	0.21446	-0.65095	295.86792	-1.64502
4.48700	0.21429	0.33925	295.96793	-1.63633
4.48700	0.21415	-0.26165	296.06793	-1.64303
4.48700	0.21393	0.08615	296.16794	-1.64083
4.48700	0.21381	-0.41015	296.26795	-1.65134
4.48700	0.21358	1.05235	296.36795	-1.62436
4.48700	0.21342	-0.15905	296.46796	-1.62844
4.48700	0.21325	0.37825	296.56796	-1.61874
4.48700	0.21306	-1.11195	296.66797	-1.64725
4.48700	0.21286	0.04395	296.76797	-1.64612
4.48700	0.21274	-0.35585	296.86798	-1.65525
4.48700	0.21260	0.07255	296.96799	-1.65339
4.48700	0.21239	-0.38525	297.06799	-1.66327
4.48700	0.21225	0.14015	297.16800	-1.65967
4.48700	0.21204	-0.19915	297.26800	-1.66478
4.48700	0.21186	0.38625	297.36801	-1.65487
4.48700	0.21168	0.00825	297.46801	-1.65466
4.48700	0.21152	0.55475	297.56802	-1.64044
4.48700	0.21134	-0.23605	297.66803	-1.64649
4.48700	0.21116	0.09685	297.76803	-1.64401
4.48700	0.21103	-0.48095	297.86804	-1.65634
4.48700	0.21082	0.17175	297.96804	-1.65193
4.48700	0.21067	-0.14345	298.06805	-1.65561
4.48700	0.21048	0.49545	298.16805	-1.64291
4.48700	0.21031	-1.09195	298.26806	-1.67091
4.48700	0.21013	0.52195	298.36807	-1.65752
4.48700	0.20996	-0.23165	298.46807	-1.66346
4.48700	0.20979	0.63525	298.56808	-1.64717
4.48700	0.20963	-0.47185	298.66808	-1.65927
4.48700	0.20948	0.12135	298.76809	-1.65616
4.48700	0.20928	-0.95175	298.86809	-1.68057
4.48700	0.20913	0.39125	298.96810	-1.67053
4.48700	0.20891	-0.69185	299.06811	-1.68827
4.48700	0.20874	0.41295	299.16811	-1.67769
4.48700	0.20858	-0.23825	299.26812	-1.68379
4.48700	0.20834	0.59365	299.36812	-1.66857
4.48700	0.20823	-0.45795	299.46813	-1.68031
4.48700	0.20803	0.99685	299.56813	-1.65475
4.48700	0.20793	-0.50385	299.66814	-1.66767
4.48700	0.20773	0.19995	299.76815	-1.66255
4.48700	0.20755	-0.71035	299.86815	-1.68076
4.48700	0.20738	0.38105	299.96816	-1.67099
4.48700	0.20719	-0.26425	300.06816	-1.67777
4.48700	0.20702	0.59005	300.16817	-1.66263
4.48700	0.20685	-0.43165	300.26817	-1.67370
4.48700	0.20669	0.20355	300.36818	-1.66848
4.48700	0.20651	-0.17045	300.46819	-1.67285
4.48700	0.20636	0.39225	300.56819	-1.66280
4.48700	0.20615	-1.04385	300.66720	-1.68930
4.48700	0.20604	0.09705	300.76720	-1.68681
4.48700	0.20583	-0.48885	300.86721	-1.69934
4.48700	0.20564	0.71345	300.96721	-1.68105
4.48700	0.20548	-0.54635	301.06722	-1.69506
4.48700	0.20531	0.18005	301.16723	-1.69044
4.48600	0.20512	-0.17075	301.26723	-1.69482
4.48700	0.20497	0.42645	301.36724	-1.68388
4.48700	0.20485	-0.24855	301.46724	-1.69026
4.48700	0.20464	0.09755	301.56725	-1.68775
4.48700	0.20448	-0.50795	301.66725	-1.70078
4.48700	0.20426	-0.02565	301.76726	-1.70144
4.48700	0.20412	-0.16925	301.86727	-1.70578
4.48700	0.20391	0.28955	301.96727	-1.69835
4.48700	0.20377	-0.02755	302.06728	-1.69906
4.48700	0.20360	0.53215	302.16728	-1.68541
4.48700	0.20344	-0.26215	302.26729	-1.69213
4.48700	0.20329	0.11415	302.36729	-1.68921
4.48700	0.20308	-0.36905	302.46730	-1.69867
4.48700	0.20295	0.93315	302.56731	-1.67474
4.48700	0.20272	-0.13685	302.66731	-1.67825
4.48700	0.20256	0.30155	302.76732	-1.67052
4.48700	0.20239	-0.85985	302.86732	-1.69257
4.48700	0.20221	0.46515	302.96733	-1.68064
4.48700	0.20203	-0.26435	303.06733	-1.68742
4.48700	0.20186	1.09845	303.16734	-1.65925
4.48700	0.20173	-0.59575	303.26735	-1.67453
4.48700	0.20151	0.91485	303.36735	-1.65107
4.48700	0.20137	-0.80325	303.46736	-1.67167
4.48700	0.20116	0.22685	303.56736	-1.66585
4.48700	0.20101	-0.73635	303.66737	-1.68473
4.48700	0.20083	0.40765	303.76737	-1.67428
4.48700	0.20067	-0.87445	303.86738	-1.69670
4.48700	0.20048	0.58105	303.96739	-1.68180
4.48700	0.20032	-0.32945	304.06739	-1.69025
4.48700	0.20018	0.73865	304.16740	-1.67131
4.48700	0.19997	-0.50645	304.26740	-1.68429
4.48700	0.19981	0.21285	304.36741	-1.67884
4.48700	0.19958	-0.88775	304.46741	-1.70160
4.48700	0.19944	0.50455	304.56742	-1.68866
4.48700	0.19925	-0.32785	304.66743	-1.69707
4.48700	0.19909	0.11535	304.76743	-1.69411
4.48700	0.19892	-0.57845	304.86744	-1.70894
4.48700	0.19875	0.90195	304.96744	-1.68581
4.48700	0.19861	-0.18735	305.06745	-1.69062
4.48700	0.19841	0.44985	305.16745	-1.67908
4.48700	0.19827	-0.92515	305.26746	-1.70281
4.48700	0.19805	0.52415	305.36747	-1.68937
4.48700	0.19789	-0.30985	305.46747	-1.69731
4.48700	0.19771	0.11115	305.56748	-1.69446
4.48700	0.19756	-0.49245	305.66748	-1.70709
4.48700	0.19737	0.18705	305.76749	-1.70229
4.48700	0.19720	-0.18425	305.86749	-1.70702
4.48700	0.19707	0.45155	305.96750	-1.69544
4.48700	0.19686	-0.02505	306.06751	-1.69608
4.48700	0.19671	0.56605	306.16751	-1.68156
4.48700	0.19651	-0.32975	306.26752	-1.69002
4.48700	0.19634	-0.03105	306.36752	-1.69082
4.48700	0.19618	-0.65825	306.46753	-1.70769
4.48700	0.19600	0.24465	306.56753	-1.70142
4.48700	0.19583	-0.21855	306.66754	-1.70703
4.48700	0.19565	0.18925	306.76755	-1.70217
4.48700	0.19553	-0.98855	306.86755	-1.72752
4.48700	0.19528	0.07205	306.96756	-1.72567
4.48700	0.19518	-0.42805	307.06756	-1.73665
4.48700	0.19497	0.83925	307.16757	-1.71513
4.48700	0.19479	-0.61255	307.26757	-1.73084
4.48700	0.19462	0.07565	307.36758	-1.72890
4.48700	0.19445	-0.03215	307.46759	-1.72972
4.48700	0.19427	0.16835	307.56759	-1.72540
4.48700	0.19412	-0.84255	307.66760	-1.74701
4.48700	0.19398	0.39305	307.76760	-1.73693
4.48700	0.19376	-0.16595	307.86761	-1.74118
4.48700	0.19363	0.58545	307.96761	-1.72617
4.48700	0.19344	-0.33995	308.06762	-1.73489
4.48700	0.19324	0.87695	308.16763	-1.71240
4.48700	0.19310	-0.72095	308.26763	-1.73089
4.48700	0.19291	0.22955	308.36764	-1.72500
4.48700	0.19274	-0.96995	308.46764	-1.74987
4.48700	0.19257	0.26815	308.56765	-1.74300
4.48700	0.19242	-0.18105	308.66765	-1.74764
4.48700	0.19223	0.71305	308.76766	-1.72936
4.48700	0.19208	-0.16095	308.86767	-1.73348
4.48700	0.19187	0.37925	308.96767	-1.72376
4.48700	0.19171	-0.99425	309.06768	-1.74925
4.48700	0.19152	0.57435	309.16768	-1.73453
4.48700	0.19134	-0.89375	309.26769	-1.75744
4.48700	0.19116	0.08265	309.36769	-1.75532
4.48700	0.19098	-0.48545	309.46770	-1.76777
4.48700	0.19089	0.82335	309.56771	-1.74666
4.48600	0.19066	-0.50415	309.66771	-1.75959
4.48600	0.19049	0.11265	309.76772	-1.75670
4.48700	0.19030	-0.77825	309.86772	-1.77665
4.48700	0.19012	0.85655	309.96773	-1.75469
4.48700	0.18996	-0.39515	310.06774	-1.76482
4.48700	0.18978	0.81835	310.16774	-1.74384
4.48700	0.18961	-0.62245	310.26775	-1.75980
4.48700	0.18944	0.81025	310.36775	-1.73902
4.48700	0.18932	-0.19985	310.46776	-1.74415
4.48700	0.18909	0.41635	310.56776	-1.73347
4.48700	0.18897	-0.92305	310.66777	-1.75714
4.48700	0.18875	-0.04055	310.76778	-1.75818
4.48700	0.18859	-0.37905	310.86778	-1.76790
4.48700	0.18842	0.87185	310.96779	-1.74554
4.48700	0.18823	-0.61705	311.06779	-1.76136
4.48700	0.18806	0.26995	311.16780	-1.75444
4.48700	0.18789	-0.24015	311.26780	-1.76060
4.48700	0.18777	0.62185	311.36781	-1.74465
4.48700	0.18755	-0.87085	311.46781	-1.76698
4.48700	0.18742	0.11285	311.56782	-1.76409
4.48700	0.18720	-0.63595	311.66783	-1.78040
4.48700	0.18703	0.87835	311.76783	-1.75787
4.48700	0.18685	-0.67715	311.86784	-1.77524
4.48600	0.18668	0.25565	311.96784	-1.76868
4.48700	0.18651	-0.22185	312.06785	-1.77437
4.48700	0.18635	0.54285	312.16786	-1.76045
4.48700	0.18623	-0.30725	312.26786	-1.76833
4.48700	0.18603	0.13775	312.36787	-1.76480
4.48700	0.18588	-0.65585	312.46787	-1.78162
4.48700	0.18567	-0.05775	312.56788	-1.78310
4.48700	0.18549	-1.01915	312.66788	-1.80923
4.48700	0.18532	0.31585	312.76789	-1.80113
4.48700	0.18516	-0.04945	312.86790	-1.80240
4.48700	0.18498	0.63405	312.96790	-1.78614
4.48700	0.18482	-0.39275	313.06791	-1.79621
4.48700	0.18467	0.14915	313.16791	-1.79239
4.48700	0.18447	-0.07525	313.26792	-1.79432
4.48700	0.18434	0.76445	313.36792	-1.77471
4.48700	0.18411	-0.17895	313.46793	-1.77930
4.48700	0.18393	0.41065	313.56793	-1.76877
4.48700	0.18376	-1.13085	313.66794	-1.79777
4.48700	0.18358	0.65485	313.76795	-1.78098
4.48700	0.18340	-0.36555	313.86795	-1.79035
4.48700	0.18323	0.99385	313.96796	-1.76487
4.48700	0.18308	-0.14685	314.06796	-1.76863
4.48700	0.18289	0.57565	314.16797	-1.75387
4.48700	0.18274	-0.18495	314.26798	-1.75861
4.48700	0.18255	0.34755	314.36798	-1.74970
4.48700	0.18239	-1.03575	314.46799	-1.77626
4.48700	0.18223	0.59085	314.56799	-1.76111
4.48700	0.18204	-1.05245	314.66800	-1.78810
4.48700	0.18189	0.45035	314.76800	-1.77655
4.48700	0.18169	-0.38315	314.86801	-1.78637
4.48700	0.18155	0.99705	314.96802	-1.76081
4.48700	0.18135	-0.19455	315.06802	-1.76579
4.48700	0.18117	0.29055	315.16803	-1.75834
4.48700	0.18098	-1.00405	315.26803	-1.78409
4.48700	0.18084	0.55085	315.36804	-1.76996
4.48700	0.18064	-1.13515	315.46804	-1.79907
4.48600	0.18048	0.60725	315.56805	-1.78350
4.48700	0.18036	-0.20415	315.66806	-1.78874
4.48700	0.18015	0.52405	315.76806	-1.77530
4.48700	0.18003	-0.01215	315.86807	-1.77561
4.48600	0.17980	0.30275	315.96807	-1.76785
4.48700	0.17962	-1.08485	316.06808	-1.79566
4.48700	0.17945	0.01645	316.16808	-1.79524
4.48700	0.17928	-0.21835	316.26809	-1.80084
4.48700	0.17912	0.37755	316.36810	-1.79116
4.48700	0.17892	-0.42225	316.46810	-1.80199
4.48700	0.17882	1.06655	316.56811	-1.77464
4.48700	0.17856	-0.69485	316.66811	-1.79245
4.48700	0.17842	0.10485	316.76812	-1.78977
4.48700	0.17825	-0.66465	316.86812	-1.80681
4.48700	0.17807	-0.02715	316.96813	-1.80751
4.48700	0.17790	-0.43775	317.06814	-1.81873
4.48700	0.17770	1.05635	317.16814	-1.79164
4.48700	0.17754	-0.11905	317.26815	-1.79470
4.48700	0.17737	0.32085	317.36815	-1.78647
4.48700	0.17725	-1.16205	317.46816	-1.81627
4.48700	0.17704	0.63865	317.56816	-1.79989
4.48700	0.17692	-0.44655	317.66817	-1.81134
4.48700	0.17672	0.17705	317.76818	-1.80680
4.48700	0.17652	-0.77315	317.86818	-1.82662
4.48700	0.17636	0.65775	317.96819	-1.80976
4.48700	0.17619	-0.28805	318.06819	-1.81714
4.48700	0.17602	0.70675	318.16720	-1.79920
4.48700	0.17586	-0.70775	318.26720	-1.81735
4.48700	0.17572	0.15615	318.36721	-1.81335
4.48700	0.17551	-0.65325	318.46722	-1.83010
4.48600	0.17537	0.19415	318.56722	-1.82512
4.48700	0.17514	-0.86185	318.66723	-1.84722
4.48700	0.17497	0.31395	318.76723	-1.83917
4.48700	0.17481	-0.31385	318.86724	-1.84722
4.48700	0.17463	0.70765	318.96724	-1.82907
4.48700	0.17446	-0.01495	319.06725	-1.82945
4.48700	0.17428	1.05735	319.16726	-1.80234
4.48700	0.17414	-0.47725	319.26726	-1.81458
4.48700	0.17396	-0.08155	319.36727	-1.81667
4.48700	0.17380	-0.21165	319.46727	-1.82210
4.48700	0.17359	0.44235	319.56728	-1.81075
4.48700	0.17345	-0.33975	319.66728	-1.81946
4.48700	0.17325	-0.07065	319.76729	-1.82128
4.48700	0.17306	-0.66195	319.86730	-1.83825
4.48700	0.17289	0.14815	319.96730	-1.83445
4.48700	0.17273	-0.53495	320.06731	-1.84817
4.48700	0.17260	1.06085	320.16731	-1.82097
4.48700	0.17238	-0.89085	320.26732	-1.84381
4.48700	0.17220	0.40045	320.36732	-1.83354
4.48700	0.17204	-1.00025	320.46733	-1.85919
4.48700	0.17187	0.75935	320.56734	-1.83972
4.48700	0.17170	-0.63985	320.66734	-1.85612
4.48700	0.17153	0.12685	320.76735	-1.85287
4.48700	0.17134	-0.58485	320.86735	-1.86787
4.48700	0.17120	1.06795	320.96836	-1.84021
4.48700	0.17102	-0.89065	321.06736	-1.86282
4.48700	0.17086	0.46735	321.16737	-1.85084
4.48700	0.17070	-0.02255	321.26738	-1.85141
4.48700	0.17049	0.40195	321.36738	-1.84111
4.48700	0.17034	-1.12905	321.46739	-1.87006
4.48700	0.17017	-0.02565	321.56739	-1.87072
4.48700	0.16998	-0.23415	321.66740	-1.87672
4.48700	0.16978	0.29135	321.77240	-1.86888
4.48700	0.16959	-0.38365	321.88241	-1.87970
4.48700	0.16950	1.10365	321.96742	-1.85564
4.48700	0.16930	-0.55935	322.06742	-1.86998
4.48700	0.16919	0.15465	322.16743	-1.86602
4.48700	0.16896	-0.42925	322.26743	-1.87703
4.48700	0.16877	-0.05305	322.36744	-1.87839
4.48700	0.16861	-0.48705	322.46744	-1.89088
4.48700	0.16842	1.03195	322.56745	-1.86441
4.48600	0.16820	-0.18485	322.67446	-1.86949
4.48600	0.16807	0.33015	322.76746	-1.86161
4.48700	0.16796	-1.11255	322.86747	-1.89014
4.48700	0.16774	0.89545	322.96747	-1.86718
4.48700	0.16760	-0.55245	323.06748	-1.88134
4.48700	0.16740	0.20895	323.16748	-1.87599
4.48700	0.16723	-0.86865	323.26749	-1.89826
4.48700	0.16705	1.08155	323.36750	-1.87053
4.48700	0.16688	-0.95905	323.46850	-1.89537
4.48600	0.16672	0.41795	323.56751	-1.88475
4.48700	0.16654	-1.08845	323.66751	-1.91267
4.48700	0.16640	0.87575	323.76752	-1.89021
4.48700	0.16620	-0.25285	323.86752	-1.89669
4.48700	0.16607	0.01695	323.96853	-1.89625
4.48700	0.16584	-0.60355	324.06754	-1.91157
4.48700	0.16569	1.02615	324.16754	-1.88526
4.48700	0.16549	-0.77955	324.26755	-1.90525
4.48700	0.16535	0.15085	324.36755	-1.90138
4.48700	0.16511	-0.18535	324.48156	-1.90680
4.48700	0.16498	0.44515	324.56756	-1.89698
4.48700	0.16487	-1.19195	324.66757	-1.92755
4.48700	0.16464	0.35045	324.76758	-1.91856
4.48600	0.16450	-1.05395	324.86758	-1.94559
4.48600	0.16428	0.42905	324.96759	-1.93459
4.48700	0.16411	-0.35575	325.07459	-1.94435
4.48700	0.16392	-0.07135	325.16760	-1.94605
4.48700	0.16377	-0.40175	325.26760	-1.95635
4.48700	0.16360	0.20015	325.36761	-1.95122
4.48700	0.16344	-0.88995	325.46762	-1.97404
4.48700	0.16329	-0.05775	325.56762	-1.97552
4.48700	0.16309	-0.81485	325.66763	-1.99641
4.48700	0.16294	0.13815	325.76763	-1.99287
4.48700	0.16273	-0.04515	325.86764	-1.99403
4.48700	0.16255	0.45425	325.96764	-1.98238
4.48700	0.16240	-0.29435	326.07465	-1.99046
4.48700	0.16221	0.11665	326.16766	-1.98767
4.48700	0.16206	-0.24025	326.26766	-1.99383
4.48700	0.16187	0.98645	326.36767	-1.96854
4.48700	0.16177	-1.16165	326.46767	-1.99833
4.48700	0.16153	0.48825	326.56868	-1.98568
4.48700	0.16141	-1.11075	326.66768	-2.01388
4.48700	0.16119	0.91565	326.76769	-1.99040
4.48700	0.16101	-0.55415	326.86770	-2.00461
4.48700	0.16084	0.75735	326.96770	-1.98519
4.48700	0.16066	-1.06855	327.06771	-2.01259
4.48700	0.16048	0.22595	327.16771	-2.00679
4.48700	0.16034	-0.26525	327.26772	-2.01360
4.48700	0.16015	0.69215	327.36772	-1.99585
4.48700	0.15998	-1.05925	327.46773	-2.02301
4.48700	0.15985	1.00305	327.56774	-1.99729
4.48700	0.15965	-0.37835	327.66774	-2.00699
4.48700	0.15946	-0.05135	327.76775	-2.00831
4.48700	0.15929	-0.60005	327.86775	-2.02369
4.48700	0.15911	0.99595	327.96776	-1.99815
4.48700	0.15894	-0.02905	328.06776	-1.99890
4.48700	0.15878	0.15455	328.16777	-1.99494
4.48700	0.15865	-0.19625	328.26778	-1.99997
4.48700	0.15844	0.18615	328.36778	-1.99520
4.48700	0.15829	-0.80945	328.46779	-2.01595
4.48700	0.15811	1.02335	328.56779	-1.98971
4.48700	0.15792	-1.03875	328.66780	-2.01635
4.48700	0.15773	0.28625	328.76780	-2.00901
4.48700	0.15754	-0.27475	328.86781	-2.01605
4.48700	0.15738	0.57665	328.96782	-2.00126
4.48700	0.15721	-1.12265	329.06782	-2.03005
4.48700	0.15708	-0.03695	329.16783	-2.03100
4.48700	0.15683	-0.06095	329.29383	-2.03297
4.48700	0.15674	-0.00115	329.36784	-2.03299
4.48700	0.15651	-0.54125	329.46784	-2.04687
4.48700	0.15636	0.14825	329.56785	-2.04307
4.48700	0.15618	-0.03905	329.66786	-2.04407
4.48700	0.15604	0.46185	329.76786	-2.03223
4.48700	0.15583	-1.09665	329.86787	-2.06035
4.48700	0.15567	0.96025	329.96787	-2.03572
4.48700	0.15553	-0.27915	330.06788	-2.04288
4.48700	0.15533	-0.03655	330.16788	-2.04382
4.48700	0.15515	-0.62475	330.26789	-2.05984
4.48700	0.15494	0.18235	330.36790	-2.05516
4.48700	0.15481	-0.18455	330.46790	-2.05989
4.48700	0.15464	1.00355	330.56791	-2.03416
4.48600	0.15446	-0.65305	330.66791	-2.05091
4.48700	0.15428	0.27365	330.76792	-2.04389
4.48700	0.15412	-1.05995	330.86792	-2.07107
4.48700	0.15398	0.91345	330.96793	-2.04765
4.48700	0.15377	-1.18605	331.06794	-2.07806
4.48700	0.15364	0.52105	331.16794	-2.06470
4.48700	0.15343	-1.08855	331.26795	-2.09261
4.48700	0.15326	0.97575	331.36795	-2.06759
4.48700	0.15310	-0.30745	331.46796	-2.07547
4.48700	0.15292	-0.06605	331.56796	-2.07717
4.48700	0.15276	-0.34895	331.66797	-2.08611
4.48700	0.15260	1.07995	331.76798	-2.05842
4.48700	0.15244	-0.89845	331.86798	-2.08146
4.48700	0.15223	0.93065	331.96799	-2.05760
4.48700	0.15211	-0.23785	332.06799	-2.06369
4.48700	0.15189	0.31125	332.16800	-2.05571
4.48700	0.15171	-1.16295	332.26800	-2.08553
4.48700	0.15155	0.19775	332.36801	-2.08046
4.48700	0.15136	-0.30895	332.46802	-2.08839
4.48700	0.15120	0.76345	332.56802	-2.06881
4.48700	0.15103	-0.35505	332.66803	-2.07791
4.48700	0.15090	1.02595	332.76803	-2.05160
4.48700	0.15068	-0.56785	332.86804	-2.06617
4.48700	0.15056	0.32835	332.96804	-2.05775
4.48700	0.15033	-1.19445	333.06805	-2.08837
4.48700	0.15017	-0.08455	333.16806	-2.09054
4.48600	0.15000	-0.27855	333.26806	-2.09769
4.48600	0.14983	0.77435	333.36807	-2.07783
4.48700	0.14964	-0.03065	333.46807	-2.07861
4.48700	0.14946	1.07645	333.56808	-2.05101
4.48700	0.14931	-0.67555	333.66809	-2.06833
4.48700	0.14914	0.31645	333.76809	-2.06022
4.48700	0.14900	-0.03735	333.86810	-2.06118
4.48700	0.14878	0.06425	333.96810	-2.05953
4.48700	0.14861	-0.31065	334.06811	-2.06750
4.48700	0.14842	0.81595	334.16811	-2.04657
4.48700	0.14826	-0.92415	334.26812	-2.07027
4.48700	0.14808	1.10135	334.36812	-2.04203
4.48700	0.14789	-0.31455	334.46813	-2.05009
4.48700	0.14778	-0.08435	334.56814	-2.05226
4.48700	0.14755	-0.49945	334.66814	-2.06506
4.48700	0.14744	0.98825	334.76815	-2.03972
4.48700	0.14723	-0.97835	334.86815	-2.06481
4.48700	0.14707	-0.03115	334.96816	-2.06561
4.48700	0.14688	-0.15535	335.06816	-2.06959
4.48700	0.14671	0.24995	335.16817	-2.06318
4.48700	0.14655	-0.79725	335.26818	-2.08363
4.48700	0.14638	0.88075	335.36818	-2.06104
4.48700	0.14615	-1.19015	335.47219	-2.09278
4.48700	0.14602	0.41595	335.56819	-2.08254
4.48700	0.14590	-0.75025	335.66720	-2.10159
4.48700	0.14567	1.10515	335.76720	-2.07325
4.48700	0.14551	-0.97755	335.86721	-2.09831
4.48700	0.14533	0.99935	335.96722	-2.07269
4.48700	0.14517	-0.70965	336.06722	-2.09089
4.48700	0.14501	0.84975	336.16723	-2.06910
4.48700	0.14485	-1.15895	336.26723	-2.09881
4.48700	0.14468	0.81705	336.36724	-2.07786
4.48700	0.14447	-0.01335	336.46725	-2.07820
4.48700	0.14434	0.64555	336.56725	-2.06165
4.48700	0.14413	-0.95985	336.66726	-2.08626
4.48700	0.14394	-0.05185	336.76726	-2.08759
4.48700	0.14377	-0.70455	336.86727	-2.10566
4.48700	0.14360	0.82255	336.96727	-2.08457
4.48700	0.14343	-1.13765	337.06728	-2.11374
4.48700	0.14327	0.71115	337.16728	-2.09550
4.48700	0.14313	-0.48095	337.26729	-2.10784
4.48700	0.14292	1.05175	337.36730	-2.08087
4.48700	0.14280	-0.06985	337.46730	-2.08266
4.48700	0.14258	0.40345	337.56731	-2.07231
4.48700	0.14238	-1.14695	337.66731	-2.10172
4.48700	0.14222	-0.05835	337.76732	-2.10322
4.48700	0.14206	-0.88035	337.86733	-2.12579
4.48700	0.14188	0.71375	337.96733	-2.10749
4.48700	0.14170	-0.52225	338.06734	-2.12088
4.48700	0.14156	0.99475	338.16734	-2.09537
4.48700	0.14137	-0.77525	338.26735	-2.11525
4.48700	0.14124	0.37655	338.36735	-2.10560
4.48700	0.14100	-1.12265	338.46736	-2.13439
4.48700	0.14084	-0.06205	338.56737	-2.13598
4.48700	0.14069	-0.87025	338.66737	-2.15829
4.48700	0.14048	0.70815	338.76738	-2.14013
4.48700	0.14034	-0.04725	338.86738	-2.14134
4.48700	0.14015	0.95785	338.96739	-2.11678
4.48700	0.14002	-0.83145	339.06739	-2.13810
4.48700	0.13981	0.37695	339.16740	-2.12844
4.48700	0.13968	-0.03315	339.26741	-2.12929
4.48700	0.13947	0.69435	339.36741	-2.11148
4.48700	0.13928	-1.03405	339.46742	-2.13800
4.48700	0.13912	0.76285	339.56742	-2.11844
4.48700	0.13895	-0.85965	339.66743	-2.14048
4.48700	0.13877	1.01365	339.76743	-2.11449
4.48700	0.13861	-0.82045	339.86744	-2.13552
4.48700	0.13846	0.46815	339.96745	-2.12352
4.48700	0.13826	-1.11125	340.06745	-2.15201
4.48700	0.13811	-0.05185	340.16746	-2.15334
4.48700	0.13790	-0.35225	340.26746	-2.16238
4.48700	0.13772	1.05375	340.36747	-2.13536
4.48700	0.13756	-0.88785	340.46747	-2.15812
4.48700	0.13737	1.02275	340.56748	-2.13190
4.48700	0.13724	-0.03865	340.66749	-2.13289
4.48700	0.13704	0.28925	340.76749	-2.12547
4.48700	0.13692	-0.98885	340.86750	-2.15083
4.48700	0.13664	0.77695	340.96750	-2.13090
4.48700	0.13652	-0.03835	341.06751	-2.13189
4.48700	0.13635	0.71815	341.16751	-2.11347
4.48700	0.13615	-0.83295	341.26752	-2.13483
4.48700	0.13600	1.01575	341.36753	-2.10878
4.48700	0.13582	-0.39815	341.46753	-2.11899
4.48700	0.13566	-0.05565	341.56754	-2.12042
4.48700	0.13550	-0.79225	341.66754	-2.14074
4.48700	0.13536	0.79795	341.76755	-2.12027
4.48700	0.13515	-1.13015	341.86755	-2.14925
4.48700	0.13501	0.71765	341.96756	-2.13085
4.48700	0.13479	-0.00955	342.06757	-2.13110
4.48700	0.13463	0.29595	342.16757	-2.12351
4.48700	0.13446	-1.00645	342.26758	-2.14931
4.48700	0.13427	0.78325	342.36758	-2.12923
4.48700	0.13413	-1.12825	342.46759	-2.15816
4.48700	0.13393	0.64745	342.56759	-2.14156
4.48700	0.13383	-0.02065	342.66760	-2.14209
4.48700	0.13360	0.30065	342.76761	-2.13438
4.48700	0.13346	-0.04245	342.86761	-2.13547
4.48700	0.13327	0.76555	342.96762	-2.11584
4.48700	0.13309	-0.41085	343.06762	-2.12637
4.48700	0.13289	-0.04095	343.16763	-2.12742
4.48700	0.13274	-0.93365	343.26763	-2.15136
4.48700	0.13256	0.70975	343.36764	-2.13316
4.48700	0.13239	-0.02935	343.46765	-2.13392
4.48700	0.13227	0.62935	343.56765	-2.11778
4.48700	0.13205	-1.14235	343.66766	-2.14707
4.48700	0.13193	0.49555	343.76766	-2.13436
4.48700	0.13173	-1.02495	343.86767	-2.16064
4.48700	0.13154	-0.04385	343.96767	-2.16177
4.48700	0.13137	-0.57745	344.06768	-2.17658
4.48700	0.13119	0.93875	344.16769	-2.15250
4.48700	0.13102	-0.00635	344.26769	-2.15267
4.48700	0.13086	0.33325	344.36770	-2.14412
4.48700	0.13072	-1.20065	344.46770	-2.17491
4.48700	0.13051	0.45175	344.56771	-2.16332
4.48700	0.13037	-0.05645	344.66771	-2.16477
4.48700	0.13013	0.58805	344.76772	-2.14969
4.48700	0.12997	-0.55375	344.86773	-2.16389
4.48700	0.12980	0.98665	344.96773	-2.13859
4.48700	0.12964	0.01095	345.06774	-2.13831
4.48700	0.12951	0.30795	345.16774	-2.13041
4.48700	0.12928	-1.09425	345.26775	-2.15847
4.48700	0.12918	-0.02525	345.36775	-2.15912
4.48700	0.12894	-0.98395	345.46776	-2.18435
4.48700	0.12876	0.88325	345.56777	-2.16170
4.48700	0.12860	-0.56425	345.66777	-2.17617
4.48700	0.12842	-0.06015	345.76778	-2.17771
4.48700	0.12826	-0.03665	345.86778	-2.17865
4.48700	0.12807	0.35195	345.96779	-2.16963
4.48700	0.12789	-1.12305	346.06779	-2.19843
4.48700	0.12773	0.60195	346.16780	-2.18299
4.48700	0.12761	-1.02005	346.26781	-2.20915
4.48700	0.12738	0.88955	346.36781	-2.18634
4.48700	0.12725	-0.35365	346.46782	-2.19540
4.48700	0.12704	0.91305	346.56782	-2.17199
4.48700	0.12687	-0.67125	346.66783	-2.18920
4.48700	0.12670	0.93595	346.76783	-2.16520
4.48700	0.12653	-0.02985	346.86784	-2.16597
4.48700	0.12636	-0.06115	346.96785	-2.16754
4.48700	0.12619	-0.43995	347.06785	-2.17882
4.48700	0.12606	1.07805	347.16786	-2.15117
4.48700	0.12585	-0.65065	347.26786	-2.16786
4.48700	0.12570	0.87315	347.36787	-2.14547
4.48700	0.12549	-0.89685	347.46787	-2.16847
4.48700	0.12532	0.16865	347.56788	-2.16414
4.48700	0.12515	-0.97405	347.66789	-2.18912
4.48700	0.12498	-0.06735	347.76789	-2.19085
4.48700	0.12482	-0.47555	347.86790	-2.20304
4.48700	0.12465	1.06775	347.96790	-2.17566
4.48700	0.12454	-0.71085	348.06791	-2.19389
4.48700	0.12428	0.91885	348.16791	-2.17033
4.48700	0.12418	-0.69935	348.26792	-2.18826
4.48700	0.12395	-0.05055	348.36793	-2.18955
4.48700	0.12378	-0.92895	348.46793	-2.21338
4.48700	0.12358	0.58195	348.56794	-2.19845
4.48700	0.12344	-0.02895	348.66794	-2.19919
4.48700	0.12325	0.92265	348.76795	-2.17554
4.48600	0.12308	-0.69895	348.86795	-2.19346
4.48700	0.12295	0.89785	348.96796	-2.17043
4.48700	0.12272	-1.06145	349.06797	-2.19765
4.48700	0.12260	0.56045	349.16797	-2.18328
4.48700	0.12238	-0.91235	349.26798	-2.20668
4.48700	0.12219	-0.08265	349.36798	-2.20880
4.48700	0.12203	-0.69575	349.46799	-2.22664
4.48700	0.12183	0.83555	349.56799	-2.20521
4.48700	0.12168	-0.03295	349.66800	-2.20606
4.48700	0.12154	0.35685	349.76801	-2.19690
4.48700	0.12137	-1.13445	349.86801	-2.22599
4.48700	0.12119	0.51835	349.96802	-2.21270
4.48700	0.12100	-0.99575	350.06802	-2.23824
4.48700	0.12080	0.79455	350.16803	-2.21786
4.48700	0.12067	-0.66575	350.26803	-2.23493
4.48700	0.12048	0.85125	350.36804	-2.21310
4.48700	0.12034	0.00065	350.46805	-2.21309
4.48700	0.12017	0.35465	350.56805	-2.20399
4.48700	0.11999	-1.11985	350.66806	-2.23271
4.48700	0.11985	-0.05845	350.76806	-2.23421
4.48700	0.11964	-0.37485	350.86807	-2.24382
4.48700	0.11947	1.09115	350.96807	-2.21584
4.48700	0.11930	-0.62475	351.06808	-2.23186
4.48700	0.11911	-0.04975	351.16809	-2.23314
4.48700	0.11894	-0.01295	351.26809	-2.23347
4.48700	0.11878	0.34545	351.36810	-2.22461
4.48700	0.11865	-1.17525	351.46810	-2.25475
4.48700	0.11842	0.49995	351.56811	-2.24193
4.48700	0.11827	-0.94215	351.66811	-2.26608
4.48700	0.11806	0.99355	351.76812	-2.24061
4.48700	0.11792	-0.14975	351.86813	-2.24445
4.48700	0.11774	0.81195	351.96813	-2.22363
4.48700	0.11756	-0.02635	352.06814	-2.22430
4.48700	0.11745	0.41885	352.16814	-2.21356
4.48700	0.11724	-1.20705	352.26815	-2.24451
4.48700	0.11706	0.43005	352.36815	-2.23349
4.48700	0.11689	-0.90275	352.46816	-2.25663
4.48700	0.11671	-0.05965	352.56817	-2.25816
4.48700	0.11654	-0.02165	352.66817	-2.25872
4.48700	0.11639	1.04695	352.76818	-2.23187
4.48700	0.11620	-0.61575	352.86818	-2.24766
4.48700	0.11602	-0.04735	352.96819	-2.24888
4.48700	0.11588	-1.11115	353.06819	-2.27737
4.48700	0.11567	0.56325	353.16720	-2.26307
4.48700	0.11555	-0.94405	353.26721	-2.28728
4.48700	0.11532	0.37335	353.36721	-2.27770
4.48700	0.11518	-0.02825	353.46722	-2.27843
4.48700	0.11500	0.46455	353.56722	-2.26652
4.48700	0.11482	-0.04905	353.66723	-2.26777
4.48700	0.11464	1.09485	353.76723	-2.23970
4.48700	0.11449	-0.54225	353.86724	-2.25360
4.48700	0.11436	-0.05275	353.96725	-2.25496
4.48700	0.11417	-1.15925	354.06725	-2.28468
4.48700	0.11401	0.44865	354.16726	-2.27318
4.48700	0.11377	-0.04755	354.26726	-2.27440
4.48700	0.11363	0.23395	354.36727	-2.26840
4.48700	0.11343	-0.97855	354.46727	-2.29349
4.48700	0.11325	0.63475	354.56728	-2.27721
4.48700	0.11309	-0.87885	354.66729	-2.29975
4.48700	0.11291	0.31185	354.76729	-2.29175
4.48700	0.11277	-0.82235	354.86730	-2.31284
4.48700	0.11256	1.05325	354.96730	-2.28583
4.48700	0.11243	-0.45065	355.06731	-2.29739
4.48700	0.11222	0.72605	355.16731	-2.27877
4.48700	0.11207	-1.17235	355.26732	-2.30883
4.48700	0.11188	0.70125	355.36733	-2.29085
4.48700	0.11171	-0.04925	355.46733	-2.29211
4.48700	0.11154	0.83855	355.56734	-2.27061
4.48700	0.11135	-0.72565	355.66734	-2.28922
4.48700	0.11123	0.81465	355.76735	-2.26833
4.48700	0.11101	-0.04995	355.86735	-2.26961
4.48700	0.11089	0.89355	355.96736	-2.24669
4.48700	0.11065	-0.57525	356.06737	-2.26144
4.48700	0.11048	-0.04515	356.16737	-2.26260
4.48700	0.11031	-0.59435	356.26738	-2.27784
4.48700	0.11014	0.94465	356.36738	-2.25362
4.48700	0.10996	-0.83185	356.46739	-2.27495
4.48700	0.10980	-0.04645	356.56739	-2.27614
4.48700	0.10966	-0.95925	356.66740	-2.30074
4.48700	0.10947	0.64215	356.76741	-2.28427
4.48700	0.10934	-0.88105	356.86741	-2.30686
4.48700	0.10912	-0.07035	356.96742	-2.30867
4.48700	0.10894	-0.66815	357.06742	-2.32580
4.48700	0.10878	1.08405	357.16743	-2.29800
4.48700	0.10860	-0.02365	357.26743	-2.29861
4.48700	0.10843	0.35835	357.36744	-2.28942
4.48700	0.10825	-1.12825	357.46745	-2.31835
4.48700	0.10812	0.79125	357.56745	-2.29806
4.48700	0.10791	-0.03725	357.66746	-2.29902
4.48700	0.10776	-0.05965	357.76746	-2.30055
4.48700	0.10760	-0.55535	357.86747	-2.31479
4.48700	0.10739	0.86505	357.96747	-2.29260
4.48700	0.10724	-0.23235	358.06748	-2.29856
4.48700	0.10705	0.56135	358.16749	-2.28417
4.48700	0.10689	-1.16495	358.26749	-2.31404
4.48700	0.10670	-0.04195	358.36750	-2.31512
4.48700	0.10659	-0.75005	358.46750	-2.33435
4.48700	0.10637	-0.06285	358.56751	-2.33596
4.48700	0.10621	-0.57105	358.66751	-2.35060
4.48700	0.10603	0.89835	358.76752	-2.32757
4.48700	0.10585	-0.36925	358.86753	-2.33704
4.48700	0.10569	0.68925	358.96753	-2.31936
4.48700	0.10544	-0.33295	359.06754	-2.32790
4.48700	0.10533	-0.07255	359.16754	-2.32976
4.48700	0.10518	-1.16575	359.26755	-2.35965
4.48700	0.10504	0.34155	359.36755	-2.35089
4.48700	0.10478	-0.04815	359.46756	-2.35213
4.48700	0.10468	0.54785	359.56757	-2.33808
4.48700	0.10448	-0.03135	359.66757	-2.33888
4.48700	0.10431	1.05385	359.76758	-2.31186
4.48700	0.10411	-0.61925	359.86758	-2.32774
4.48700	0.10393	-0.04925	359.96759	-2.32900
4.48700	0.10375	-0.61485	360.06760	-2.34477
4.48700	0.10358	-0.06645	360.16760	-2.34647
4.48700	0.10345	-1.12935	360.26761	-2.37543
4.48700	0.10321	0.33435	360.36761	-2.36686
4.48700	0.10309	-0.04595	360.46862	-2.36805
4.48700	0.10291	0.47895	360.56762	-2.35589
4.48700	0.10272	-1.06495	360.66763	-2.38320
4.48700	0.10256	0.12885	360.76763	-2.37989
4.48700	0.10239	-0.74095	360.86764	-2.39889
4.48700	0.10222	0.99905	360.96765	-2.37327
4.48700	0.10203	-0.93945	361.06765	-2.39736
4.48700	0.10189	0.59195	361.16766	-2.38218
4.48700	0.10169	-0.03175	361.26766	-2.38300
4.48700	0.10156	0.89485	361.36767	-2.36005
4.48700	0.10135	-0.64485	361.46767	-2.37659
4.48700	0.10116	-0.05525	361.57268	-2.37807
4.48700	0.10102	-0.98795	361.66769	-2.40214
4.48700	0.10083	0.54175	361.76769	-2.38825
4.48700	0.10067	-0.91845	361.86770	-2.41180
4.48600	0.10047	0.11585	361.96770	-2.40883
4.48700	0.10036	-0.94855	362.06771	-2.43315
4.48700	0.10015	0.81555	362.16772	-2.41224
4.48700	0.10001	-0.65885	362.26772	-2.42913
4.48700	0.09980	-0.08265	362.36773	-2.43125
4.48700	0.09963	-0.65615	362.46773	-2.44808
4.48700	0.09946	0.83845	362.56774	-2.42658
4.48700	0.09928	0.00755	362.66774	-2.42638
4.48700	0.09911	0.50645	362.76775	-2.41340
4.48700	0.09895	-1.11475	362.86775	-2.44198
4.48700	0.09877	0.91565	362.96776	-2.41850
4.48700	0.09861	-0.00645	363.06777	-2.41867
4.48700	0.09849	-0.03625	363.16777	-2.41960
4.48700	0.09826	-0.62605	363.26778	-2.43565
4.48700	0.09808	0.83185	363.36778	-2.41432
4.48600	0.09790	-0.07235	363.46779	-2.41618
4.48700	0.09771	0.47725	363.56780	-2.40394
4.48700	0.09755	-1.09995	363.66780	-2.43214
4.48700	0.09740	-0.04035	363.76781	-2.43318
4.48700	0.09727	-0.67945	363.86781	-2.45060
4.48700	0.09705	-0.06345	363.96782	-2.45223
4.48700	0.09691	-0.19885	364.06782	-2.45733
4.48700	0.09668	0.96605	364.16783	-2.43255
4.48600	0.09653	-0.13065	364.26784	-2.43590
4.48700	0.09636	0.57895	364.36784	-2.42106
4.48700	0.09620	-0.05065	364.46785	-2.42236
4.48700	0.09603	-0.07275	364.56785	-2.42422
4.48700	0.09586	-1.05065	364.66786	-2.45116
4.48700	0.09573	0.04595	364.76786	-2.44999
4.48700	0.09551	-0.04165	364.86787	-2.45105
4.48700	0.09536	0.63385	364.96788	-2.43480
4.48700	0.09515	-0.02985	365.06788	-2.43556
4.48700	0.09498	0.98705	365.16789	-2.41025
4.48700	0.09480	-0.75815	365.26789	-2.42970
4.48700	0.09465	-0.04305	365.36790	-2.43080
4.48700	0.09445	-1.08565	365.46790	-2.45864
4.48700	0.09430	0.00805	365.56791	-2.45843
4.48700	0.09415	-0.57345	365.66792	-2.47314
4.48700	0.09394	1.01205	365.76792	-2.44718
4.48700	0.09381	-0.14725	365.86793	-2.45096
4.48700	0.09361	0.54065	365.96793	-2.43710
4.48700	0.09342	-1.06495	366.06794	-2.46440
4.48700	0.09327	0.91485	366.16794	-2.44094
4.48700	0.09306	-0.62225	366.26795	-2.45690
4.48700	0.09290	1.03105	366.36796	-2.43046
4.48700	0.09273	-1.03015	366.46796	-2.45688
4.48700	0.09260	0.46045	366.56797	-2.44507
4.48700	0.09237	0.00895	366.66797	-2.44484
4.48700	0.09225	0.60475	366.76798	-2.42933
4.48600	0.09200	-0.30725	366.89198	-2.43910
4.48700	0.09188	-0.07045	366.96799	-2.44048
4.48700	0.09170	-0.47215	367.06800	-2.45258
4.48700	0.09151	0.94065	367.16800	-2.42846
4.48700	0.09135	-1.07255	367.26801	-2.45596
4.48700	0.09118	-0.06175	367.36801	-2.45755
4.48700	0.09105	-0.00705	367.46802	-2.45773
4.48700	0.09085	-0.01535	367.56802	-2.45812
4.48700	0.09068	-1.06385	367.66803	-2.48540
4.48700	0.09049	-0.03655	367.76804	-2.48634
4.48700	0.09034	-0.54385	367.86804	-2.50028
4.48700	0.09018	0.93505	367.96805	-2.47631
4.48700	0.08999	-0.06005	368.06805	-2.47785
4.48700	0.08981	0.42305	368.16806	-2.46700
4.48700	0.08964	-0.02035	368.26806	-2.46752
4.48700	0.08951	0.66015	368.36807	-2.45059
4.48700	0.08930	-0.89155	368.46808	-2.47345
4.48700	0.08918	0.10195	368.56808	-2.47084
4.48700	0.08898	-0.65765	368.66809	-2.48770
4.48700	0.08877	-0.02095	368.76809	-2.48824
4.48700	0.08860	-0.01625	368.86810	-2.48866
4.48700	0.08844	0.90585	368.96810	-2.46543
4.48700	0.08827	-0.00855	369.06811	-2.46565
4.48700	0.08808	-0.03725	369.16812	-2.46660
4.48700	0.08794	-0.76125	369.26812	-2.48612
4.48700	0.08775	-0.04065	369.36813	-2.48716
4.48700	0.08756	-1.01715	369.46813	-2.51325
4.48700	0.08740	0.64905	369.56814	-2.49660
4.48700	0.08723	-0.01545	369.66814	-2.49700
4.48700	0.08705	0.96425	369.76815	-2.47227
4.48700	0.08688	-0.09205	369.86816	-2.47463
4.48700	0.08671	0.51335	369.96816	-2.46147
4.48700	0.08654	-0.73635	370.06817	-2.48035
4.48700	0.08642	-0.04945	370.16817	-2.48162
4.48700	0.08619	-1.00815	370.26818	-2.50747
4.48700	0.08605	0.67115	370.36818	-2.49026
4.48700	0.08581	-0.03875	370.46819	-2.49125
4.48700	0.08567	-0.04195	370.56820	-2.49233
4.48700	0.08548	-0.42095	370.66720	-2.50302
4.48700	0.08533	1.10115	370.76721	-2.47478
4.48700	0.08516	-0.41435	370.86721	-2.48541
4.48700	0.08496	-0.01825	370.96722	-2.48587
4.48700	0.08485	-1.18815	371.06722	-2.51634
4.48700	0.08461	0.19835	371.16723	-2.51125
4.48700	0.08451	-0.01925	371.26724	-2.51175
4.48700	0.08431	-0.03525	371.36724	-2.51265
4.48700	0.08413	-0.95965	371.46725	-2.53726
4.48700	0.08394	1.05685	371.56725	-2.51016
4.48700	0.08376	-0.47345	371.66726	-2.52230
4.48700	0.08361	0.97845	371.76726	-2.49721
4.48700	0.08344	-1.17675	371.86727	-2.52738
4.48700	0.08330	0.26205	371.96728	-2.52066
4.48700	0.08309	0.01095	372.06728	-2.52038
4.48700	0.08295	0.82525	372.16729	-2.49922
4.48700	0.08274	-0.72235	372.26729	-2.51774
4.48700	0.08258	-0.06925	372.36730	-2.51952
4.48700	0.08238	-0.25105	372.46730	-2.52596
4.48700	0.08221	0.83475	372.56731	-2.50455
4.48700	0.08207	-1.17325	372.66732	-2.53464
4.48700	0.08188	-0.06685	372.76732	-2.53635
4.48700	0.08175	-0.02105	372.86733	-2.53689
4.48700	0.08152	0.26745	372.96733	-2.53003
4.48700	0.08142	-0.95875	373.06734	-2.55462
4.48700	0.08118	-0.05955	373.16734	-2.55614
4.48700	0.08101	-0.24675	373.26735	-2.56247
4.48700	0.08085	0.88715	373.36736	-2.53972
4.48700	0.08065	-0.03075	373.46736	-2.54051
4.48700	0.08049	0.25005	373.56737	-2.53410
4.48700	0.08032	-0.06725	373.66737	-2.53582
4.48700	0.08019	-0.05055	373.76738	-2.53712
4.48700	0.07997	-0.87135	373.86738	-2.55946
4.48700	0.07984	-0.04885	373.96739	-2.56072
4.48700	0.07964	-0.36925	374.06740	-2.57018
4.48700	0.07947	-0.05005	374.16740	-2.57147
4.48700	0.07932	-1.02485	374.26741	-2.59775
4.48700	0.07912	0.56015	374.36741	-2.58338
4.48700	0.07893	-0.02035	374.46742	-2.58390
4.48700	0.07878	-0.06435	374.56742	-2.58555
4.48700	0.07864	-0.97865	374.66743	-2.61065
4.48700	0.07843	-0.06495	374.76744	-2.61231
4.48700	0.07829	-0.94565	374.86744	-2.63656
4.48700	0.07808	-0.03295	374.96745	-2.63741
4.48700	0.07792	-0.01735	375.06745	-2.63785
4.48700	0.07774	0.87675	375.16746	-2.61537
4.48700	0.07757	-0.02705	375.26746	-2.61606
4.48700	0.07739	0.74855	375.36747	-2.59687
4.48700	0.07723	-0.02815	375.46748	-2.59759
4.48700	0.07707	-0.05185	375.56748	-2.59892
4.48700	0.07690	-0.97565	375.66749	-2.62394
4.48700	0.07674	0.49785	375.76749	-2.61117
4.48700	0.07656	-0.04045	375.86750	-2.61221
4.48700	0.07634	0.17925	375.96750	-2.60761
4.48700	0.07618	-0.83705	376.06751	-2.62908
4.48700	0.07602	1.06875	376.16752	-2.60167
4.48700	0.07587	-0.26585	376.26752	-2.60849
4.48700	0.07567	-0.05235	376.36753	-2.60983
4.48700	0.07554	-1.09925	376.46753	-2.63802
4.48700	0.07532	0.07585	376.56754	-2.63607
4.48700	0.07515	0.00375	376.67054	-2.63597
4.48700	0.07498	0.92785	376.76755	-2.61290
4.48700	0.07480	-1.05075	376.86756	-2.63984
4.48700	0.07462	0.26255	376.96756	-2.63311
4.48700	0.07445	-0.03495	377.06757	-2.63400
4.48700	0.07428	0.62455	377.16757	-2.61799
4.48700	0.07407	-1.12645	377.27258	-2.64832
4.48700	0.07399	0.08285	377.36758	-2.64630
4.48700	0.07378	0.03565	377.46759	-2.64538
4.48700	0.07365	-0.01905	377.56760	-2.64587
4.48700	0.07344	-0.80005	377.66760	-2.66639
4.48700	0.07327	-0.07495	377.76761	-2.66831
4.48700	0.07310	-0.04345	377.86761	-2.66942
4.48700	0.07292	0.77825	377.96762	-2.64947
4.48700	0.07276	-1.10995	378.06762	-2.67793
4.48700	0.07256	-0.07395	378.16763	-2.67982
4.48700	0.07245	-0.04365	378.26764	-2.68094
4.48700	0.07223	0.17545	378.36764	-2.67644
4.48700	0.07210	-0.95155	378.46765	-2.70084
4.48700	0.07192	-0.13215	378.56765	-2.70423
4.48700	0.07171	-0.78525	378.66766	-2.72437
4.48700	0.07155	-0.06935	378.76766	-2.72615
4.48700	0.07137	0.10445	378.86767	-2.72347
4.48700	0.07118	0.94105	378.96768	-2.69934
4.48700	0.07103	-0.02735	379.06768	-2.70004
4.48700	0.07089	0.25345	379.16769	-2.69354
4.48700	0.07067	-0.98005	379.26769	-2.71867
4.48700	0.07055	-0.03235	379.36770	-2.71950
4.48700	0.07035	-1.05785	379.46770	-2.74663
4.48700	0.07015	0.44205	379.56771	-2.73529
4.48700	0.06999	-0.02305	379.66772	-2.73588
4.48700	0.06982	-0.03245	379.76772	-2.73671
4.48700	0.06962	-0.82355	379.86773	-2.75783
4.48700	0.06945	-0.06555	379.96773	-2.75951
4.48700	0.06934	-0.15575	380.06774	-2.76351
4.48700	0.06912	-0.05075	380.16774	-2.76481
4.48700	0.06898	-1.06485	380.26775	-2.79211
4.48700	0.06877	0.42145	380.36776	-2.78130
4.48700	0.06858	-0.04785	380.46776	-2.78253
4.48700	0.06841	-0.03435	380.56777	-2.78341
4.48700	0.06824	-0.01245	380.66777	-2.78373
4.48700	0.06806	0.99515	380.76778	-2.75821
4.48700	0.06792	-0.42205	380.86778	-2.76904
4.48700	0.06778	-0.05425	380.96779	-2.77043
4.48700	0.06756	-0.00775	381.06780	-2.77063
4.48700	0.06743	0.97905	381.16780	-2.74552
4.48700	0.06721	0.00415	381.26781	-2.74541
4.48700	0.06704	-0.03835	381.36781	-2.74640
4.48700	0.06686	-0.70455	381.46782	-2.76446
4.48700	0.06668	-0.04915	381.56782	-2.76572
4.48700	0.06652	-0.06845	381.66783	-2.76748
4.48700	0.06636	-0.05235	381.76784	-2.76882
4.48700	0.06622	-1.18265	381.86784	-2.79915
4.48700	0.06596	0.33165	381.96785	-2.79064
4.48700	0.06585	-0.02935	382.06785	-2.79139
4.48700	0.06565	-0.07695	382.16786	-2.79337
4.48700	0.06548	-0.73745	382.26786	-2.81228
4.48700	0.06533	-0.03125	382.36787	-2.81308
4.48700	0.06514	-0.02275	382.46788	-2.81366
4.48700	0.06496	0.60025	382.56788	-2.79827
4.48700	0.06480	-1.07625	382.66789	-2.82587
4.48700	0.06467	0.01715	382.76789	-2.82543
4.48700	0.06445	-0.03585	382.86790	-2.82635
4.48700	0.06431	0.97265	382.96790	-2.80141
4.48700	0.06411	-0.06025	383.06791	-2.80295
4.48700	0.06392	-0.06725	383.16792	-2.80467
4.48700	0.06377	-0.03675	383.26792	-2.80562
4.48700	0.06358	0.62295	383.36793	-2.78964
4.48700	0.06341	-1.03055	383.46793	-2.81607
4.48700	0.06324	-0.04085	383.56794	-2.81712
4.48700	0.06313	-0.82535	383.66794	-2.83828
4.48700	0.06290	0.97735	383.76795	-2.81322
4.48700	0.06279	-0.04085	383.86796	-2.81427
4.48700	0.06257	-0.16075	383.96796	-2.81839
4.48700	0.06239	-0.02915	384.06797	-2.81913
4.48700	0.06220	0.64115	384.16797	-2.80269
4.48700	0.06203	0.01805	384.26798	-2.80223
4.48700	0.06186	0.86625	384.36798	-2.78002
4.48700	0.06168	-0.61095	384.46799	-2.79568
4.48700	0.06157	0.91565	384.56800	-2.77220
4.48700	0.06135	-0.03275	384.66800	-2.77304
4.48700	0.06120	-0.05205	384.76801	-2.77438
4.48700	0.06102	-1.10235	384.86801	-2.80265
4.48700	0.06085	0.24895	384.96802	-2.79626
4.48700	0.06067	-0.04395	385.06802	-2.79739
4.48700	0.06048	-0.03685	385.16803	-2.79833
4.48700	0.06036	-0.73855	385.26804	-2.81727
4.48700	0.06016	-0.06835	385.36804	-2.81902
4.48700	0.05996	-0.00465	385.46805	-2.81914
4.48700	0.05979	-0.04765	385.56805	-2.82037
4.48700	0.05962	-1.14745	385.66806	-2.84979
4.48700	0.05948	0.18175	385.76806	-2.84513
4.48700	0.05928	-0.04715	385.86807	-2.84634
4.48700	0.05910	-0.05045	385.96808	-2.84763
4.48700	0.05893	-0.01405	386.06808	-2.84799
4.48700	0.05880	1.10365	386.16809	-2.81969
4.48700	0.05858	-0.48865	386.26809	-2.83222
4.48700	0.05846	-0.04105	386.36810	-2.83327
4.48700	0.05826	0.01755	386.46810	-2.83282
4.48700	0.05807	1.09505	386.56811	-2.80474
4.48700	0.05791	-0.03495	386.66812	-2.80564
4.48700	0.05773	1.06455	386.76812	-2.77834
4.48700	0.05754	-0.19245	386.86813	-2.78328
4.48700	0.05740	-0.06985	386.96813	-2.78507
4.48700	0.05728	-0.04135	387.06814	-2.78613
4.48700	0.05705	-0.06305	387.16814	-2.78774
4.48700	0.05691	0.02955	387.26815	-2.78699
4.48700	0.05669	0.52295	387.36816	-2.77358
4.48700	0.05652	-0.03275	387.46816	-2.77442
4.48700	0.05635	-0.07805	387.56817	-2.77642
4.48700	0.05618	-0.58895	387.66817	-2.79152
4.48700	0.05600	-0.04685	387.76818	-2.79272
4.48700	0.05585	-0.03415	387.86819	-2.79360
4.48700	0.05572	0.52145	387.96819	-2.78022
4.48700	0.05548	-0.93445	388.06720	-2.80395
4.48700	0.05537	-0.04465	388.16720	-2.80509
4.48700	0.05513	-0.01525	388.26721	-2.80548
4.48700	0.05499	0.87655	388.36721	-2.78300
4.48700	0.05481	-0.03645	388.46722	-2.78394
4.48700	0.05464	-0.00595	388.56722	-2.78409
4.48700	0.05447	-0.04325	388.66723	-2.78520
4.48700	0.05429	0.49535	388.76724	-2.77250
4.48700	0.05415	-0.97385	388.86724	-2.79747
4.48700	0.05395	-0.05705	388.96725	-2.79893
4.48700	0.05380	-0.78685	389.06725	-2.81911
4.48700	0.05361	0.89455	389.16726	-2.79617
4.48700	0.05343	-0.03075	389.26726	-2.79696
4.48700	0.05322	-0.08205	389.37927	-2.79932
4.48700	0.05309	-0.30255	389.46728	-2.80614
4.48700	0.05290	-0.04975	389.56728	-2.80742
4.48800	0.05274	-0.04065	389.66729	-2.80846
4.48700	0.05260	1.03625	389.76729	-2.78189
4.48700	0.05240	-0.34215	389.86730	-2.79066
4.48700	0.05226	0.89765	389.96731	-2.76764
4.48700	0.05204	0.01025	390.06731	-2.76738
4.48700	0.05189	0.60875	390.16732	-2.75177
4.48700	0.05170	-0.92315	390.26732	-2.77544
4.48800	0.05153	-0.02965	390.36733	-2.77620
4.48800	0.05135	0.00595	390.46733	-2.77605
4.48800	0.05109	0.11125	390.60134	-2.77223
4.48800	0.05106	-0.45985	390.67135	-2.78048
4.48800	0.05082	-0.08125	390.76735	-2.78248
4.48800	0.05070	-0.34325	390.86736	-2.79128
4.48800	0.05047	-0.03505	390.96736	-2.79218
4.48800	0.05030	-0.02545	391.06737	-2.79283
4.48800	0.05015	-0.03145	391.16737	-2.79364
4.48800	0.04995	-0.04015	391.26738	-2.79467
4.48800	0.04977	0.83165	391.36839	-2.77313
4.48800	0.04962	-0.04305	391.46739	-2.77422
4.48800	0.04946	-0.16485	391.56740	-2.77845
4.48800	0.04928	-0.03045	391.66740	-2.77923
4.48800	0.04915	0.35565	391.76741	-2.77011
4.48800	0.04893	0.00475	391.86741	-2.76999
4.48800	0.04878	-0.06115	391.96742	-2.77156
4.48800	0.04855	-0.39025	392.08943	-2.78377
4.48800	0.04841	0.76305	392.16743	-2.76850
4.48800	0.04827	0.03005	392.26744	-2.76773
4.48800	0.04807	-0.06865	392.36744	-2.76949
4.48800	0.04794	-1.05585	392.46745	-2.79657
4.48800	0.04771	-0.00155	392.56745	-2.79661
4.48900	0.04759	-0.02985	392.66746	-2.79737
4.48900	0.04738	-0.02475	392.76747	-2.79801
4.48800	0.04721	-0.48565	392.86747	-2.81046
4.48800	0.04703	-0.05885	392.96748	-2.81197
4.48800	0.04686	-0.01605	393.06748	-2.81238
4.48800	0.04668	-0.06695	393.16749	-2.81410
4.48900	0.04652	-1.08245	393.26749	-2.84185
4.48800	0.04637	-0.03985	393.36750	-2.84288
4.48800	0.04615	-0.04295	393.46750	-2.84398
4.48900	0.04601	-0.04545	393.56751	-2.84514
4.48900	0.04583	-0.03595	393.66752	-2.84606
4.48800	0.04567	-0.04935	393.76752	-2.84733
4.48800	0.04548	-0.36595	393.86753	-2.85671
4.48800	0.04530	-0.05475	393.96753	-2.85812
4.48800	0.04514	0.02495	394.06754	-2.85748
4.48800	0.04497	0.39125	394.16755	-2.84745
4.48800	0.04486	-0.04575	394.26755	-2.84862
4.48800	0.04463	-0.05935	394.36756	-2.85014
4.48800	0.04446	-0.22365	394.46756	-2.85587
4.48800	0.04429	0.82055	394.56757	-2.83483
4.48800	0.04409	-0.01295	394.66757	-2.83517
4.48800	0.04394	-0.05435	394.76758	-2.83656
4.48800	0.04376	-0.83075	394.86759	-2.85786
4.48800	0.04359	-0.03535	394.96759	-2.85877
4.48800	0.04343	-0.03625	395.06760	-2.85970
4.48800	0.04328	-0.05535	395.16760	-2.86112
4.48800	0.04305	-0.35595	395.26761	-2.87024
4.48800	0.04292	0.82895	395.36761	-2.84899
4.48800	0.04270	0.00785	395.46762	-2.84879
4.48800	0.04254	0.43905	395.56763	-2.83753
4.48800	0.04238	-0.77965	395.66763	-2.85752
4.48800	0.04219	-0.03655	395.76764	-2.85846
4.48800	0.04203	0.13355	395.86764	-2.85503
4.48800	0.04182	0.92225	395.96765	-2.83138
4.48800	0.04170	-0.15035	396.06765	-2.83524
4.48800	0.04149	-0.05965	396.16766	-2.83677
4.48800	0.04137	-0.01015	396.26767	-2.83703
4.48800	0.04115	0.23575	396.36767	-2.83098
4.48800	0.04097	-0.79225	396.46768	-2.85130
4.48800	0.04080	-0.06705	396.56768	-2.85302
4.48800	0.04063	-0.00215	396.66769	-2.85307
4.48800	0.04044	0.94585	396.76769	-2.82882
4.48800	0.04028	-0.04915	396.86770	-2.83008
4.48800	0.04016	-0.03275	396.96771	-2.83092
4.48800	0.03995	-0.00065	397.06771	-2.83093
4.48800	0.03982	0.24755	397.16772	-2.82459
4.48800	0.03961	-0.04215	397.26772	-2.82567
4.48800	0.03943	-0.00975	397.36773	-2.82592
4.48800	0.03928	-0.00905	397.46773	-2.82615
4.48800	0.03909	0.96765	397.56774	-2.80134
4.48700	0.03891	-0.05235	397.66775	-2.80268
4.48700	0.03876	-0.05595	397.76775	-2.80411
4.48800	0.03863	0.01155	397.86776	-2.80382
4.48800	0.03839	-0.05125	397.96776	-2.80513
4.48800	0.03825	0.01515	398.06777	-2.80474
4.48800	0.03806	0.15935	398.16777	-2.80066
4.48800	0.03788	-0.01555	398.26778	-2.80105
4.48800	0.03771	-0.05565	398.36779	-2.80248
4.48700	0.03754	-0.35485	398.46779	-2.81158
4.48700	0.03737	-0.00665	398.56780	-2.81175
4.48800	0.03720	-0.01625	398.66780	-2.81217
4.48800	0.03708	0.12115	398.76781	-2.80906
4.48700	0.03685	-0.79805	398.86781	-2.82952
4.48700	0.03673	-0.05425	398.96782	-2.83092
4.48800	0.03649	-0.00735	399.06783	-2.83110
4.48700	0.03635	0.64685	399.16783	-2.81452
4.48700	0.03614	-0.02925	399.26784	-2.81527
4.48700	0.03598	-0.03885	399.36784	-2.81626
4.48700	0.03580	-0.01855	399.46785	-2.81674
4.48700	0.03563	0.11905	399.56785	-2.81369
4.48700	0.03552	-0.71345	399.66786	-2.83198
4.48700	0.03530	-0.02485	399.76787	-2.83262
4.48700	0.03514	-0.39025	399.86787	-2.84262
4.48700	0.03495	0.64045	399.96788	-2.82620
4.48700	0.03478	-0.00035	400.06788	-2.82621
4.48700	0.03461	-0.17895	400.16789	-2.83080
4.48700	0.03442	-0.03055	400.26789	-2.83158
4.48700	0.03429	0.08465	400.36790	-2.82941
4.48800	0.03407	0.03105	400.46791	-2.82862
4.48700	0.03394	-0.03645	400.56791	-2.82955
4.48700	0.03373	-0.14795	400.66792	-2.83334
4.48700	0.03357	0.63605	400.76792	-2.81703
4.48700	0.03339	0.01705	400.86793	-2.81660
4.48700	0.03324	-0.08835	400.96793	-2.81886
4.48700	0.03304	-0.02195	401.06794	-2.81942
4.48700	0.03286	0.08745	401.16795	-2.81718
4.48700	0.03273	-0.01485	401.26795	-2.81756
4.48700	0.03253	-0.02685	401.36796	-2.81825
4.48700	0.03240	-0.10295	401.46796	-2.82089
4.48700	0.03218	-0.05265	401.56797	-2.82224
4.48700	0.03203	-0.01095	401.66797	-2.82252
4.48700	0.03186	-0.04855	401.76798	-2.82377
4.48700	0.03166	-0.03435	401.86799	-2.82465
4.48700	0.03148	0.03415	401.96799	-2.82377
4.48700	0.03130	-0.01065	402.06800	-2.82404
4.48700	0.03119	-0.04845	402.16800	-2.82529
4.48700	0.03098	0.01595	402.26801	-2.82488
4.48700	0.03078	-0.06645	402.36801	-2.82658
4.48800	0.03057	-0.13515	402.46802	-2.83005
4.48700	0.03042	-0.03765	402.56803	-2.83101
4.48700	0.03023	0.01375	402.66803	-2.83066
4.48700	0.03005	0.87915	402.76804	-2.80812
4.48700	0.02987	0.00575	402.86804	-2.80797
4.48700	0.02970	0.03485	402.96805	-2.80707
4.48700	0.02954	-0.87235	403.06805	-2.82944
4.48700	0.02934	-0.05615	403.16806	-2.83088
4.48700	0.02916	-0.15815	403.26807	-2.83494
4.48700	0.02902	-0.00285	403.36807	-2.83501
4.48700	0.02884	-0.01145	403.46808	-2.83530
4.48700	0.02867	0.84105	403.56808	-2.81374
4.48700	0.02851	0.00015	403.66809	-2.81373
4.48700	0.02837	-0.01015	403.76809	-2.81399
4.48700	0.02814	-0.91265	403.86810	-2.83740
4.48700	0.02802	-0.05825	403.96811	-2.83889
4.48700	0.02781	-0.00055	404.06811	-2.83890
4.48700	0.02763	-0.00545	404.16812	-2.83904
4.48700	0.02745	-0.65645	404.26812	-2.85588
4.48700	0.02728	-0.03555	404.36813	-2.85679
4.48700	0.02709	-0.01395	404.46813	-2.85715
4.48700	0.02695	0.59415	404.56814	-2.84191
4.48700	0.02681	-0.01345	404.66815	-2.84225
4.48700	0.02660	-0.04765	404.76815	-2.84348
4.48700	0.02645	-0.81865	404.86816	-2.86447
4.48700	0.02626	-0.01835	404.96816	-2.86494
4.48700	0.02607	-0.47385	405.06817	-2.87709
4.48700	0.02592	-0.06315	405.16817	-2.87871
4.48700	0.02575	-0.00825	405.26818	-2.87892
4.48700	0.02558	0.56115	405.36819	-2.86453
4.48700	0.02537	-0.01895	405.46819	-2.86502
4.48700	0.02527	-0.20835	405.56720	-2.87031
4.48700	0.02504	0.00335	405.66720	-2.87022
4.48700	0.02492	-0.00025	405.76721	-2.87023
4.48700	0.02470	0.03165	405.86721	-2.86941
4.48700	0.02451	-0.04625	405.96722	-2.87060
4.48700	0.02434	-0.01635	406.06723	-2.87102
4.48700	0.02418	0.40515	406.16723	-2.86063
4.48700	0.02399	0.04955	406.26724	-2.85936
4.48700	0.02384	-0.04255	406.36724	-2.86045
4.48700	0.02369	-0.01485	406.46725	-2.86083
4.48700	0.02350	-0.01875	406.56725	-2.86131
4.48700	0.02335	-0.00075	406.66726	-2.86133
4.48700	0.02314	-0.02925	406.76727	-2.86208
4.48700	0.02296	-0.74765	406.86727	-2.88125
4.48700	0.02279	-0.04875	406.96728	-2.88250
4.48700	0.02262	-0.02695	407.06728	-2.88319
4.48700	0.02244	-0.04505	407.16729	-2.88435
4.48700	0.02227	-0.02065	407.26729	-2.88488
4.48700	0.02214	-0.01225	407.36730	-2.88519
4.48700	0.02191	-0.02445	407.46731	-2.88582
4.48700	0.02180	-0.04235	407.56731	-2.88690
4.48700	0.02160	0.00925	407.66732	-2.88667
4.48700	0.02141	-0.05345	407.76732	-2.88804
4.48700	0.02122	-0.00335	407.86733	-2.88812
4.48700	0.02107	-0.04885	407.96733	-2.88938
4.48700	0.02092	0.02555	408.06734	-2.88872
4.48700	0.02073	0.75815	408.16735	-2.86928
4.48700	0.02061	0.02635	408.26735	-2.86860
4.48700	0.02038	-0.02325	408.36736	-2.86920
4.48700	0.02026	-0.75305	408.46736	-2.88851
4.48700	0.02004	-0.09985	408.56737	-2.89107
4.48700	0.01984	-0.01765	408.66737	-2.89152
4.48700	0.01972	-0.03345	408.76738	-2.89238
4.48700	0.01953	0.01495	408.86739	-2.89200
4.48700	0.01936	0.69995	408.96739	-2.87405
4.48700	0.01918	0.02625	409.06740	-2.87338
4.48700	0.01907	-0.12815	409.16740	-2.87666
4.48700	0.01883	-0.03055	409.26741	-2.87744
4.48700	0.01867	-0.04625	409.36741	-2.87863
4.48700	0.01850	0.02015	409.46742	-2.87811
4.48700	0.01833	-0.04665	409.56743	-2.87931
4.48700	0.01816	0.01875	409.66743	-2.87883
4.48700	0.01795	0.69295	409.76744	-2.86106
4.48700	0.01778	0.01155	409.86744	-2.86076
4.48700	0.01763	-0.10355	409.96745	-2.86342
4.48700	0.01752	-0.01375	410.06745	-2.86377
4.48700	0.01729	-0.03125	410.16746	-2.86457
4.48700	0.01715	0.06115	410.26747	-2.86300
4.48700	0.01695	-0.02435	410.36747	-2.86363
4.48700	0.01678	0.00755	410.46748	-2.86343
4.48700	0.01660	-0.03645	410.56748	-2.86437
4.48700	0.01644	-0.02815	410.66749	-2.86509
4.48700	0.01626	0.26045	410.76749	-2.85841
4.48700	0.01608	0.01145	410.86750	-2.85812
4.48700	0.01593	-0.05795	410.96751	-2.85960
4.48700	0.01574	-0.27115	411.06751	-2.86656
4.48700	0.01556	-0.05695	411.16752	-2.86802
4.48700	0.01541	-0.00615	411.26752	-2.86817
4.48700	0.01521	-0.02995	411.36753	-2.86894
4.48700	0.01505	0.01775	411.46753	-2.86849
4.48700	0.01486	0.34285	411.56754	-2.85970
4.48700	0.01469	-0.01675	411.66755	-2.86013
4.48700	0.01453	-0.03245	411.76755	-2.86096
4.48700	0.01437	-0.30685	411.86756	-2.86883
4.48700	0.01416	-0.03435	411.96756	-2.86971
4.48700	0.01403	0.22095	412.06757	-2.86404
4.48700	0.01381	-0.03445	412.16757	-2.86492
4.48700	0.01366	-0.02545	412.26758	-2.86558
4.48700	0.01349	-0.12095	412.36759	-2.86868
4.48700	0.01327	-0.03035	412.46759	-2.86946
4.48700	0.01314	-0.02755	412.56760	-2.87016
4.48700	0.01296	-0.25035	412.66760	-2.87658
4.48700	0.01283	-0.09185	412.76761	-2.87894
4.48700	0.01263	-0.00155	412.86761	-2.87898
4.48700	0.01247	-0.08135	412.96762	-2.88106
4.48700	0.01227	-0.01865	413.06763	-2.88154
4.48700	0.01211	-0.03265	413.16763	-2.88238
4.48700	0.01192	-0.01575	413.26764	-2.88278
4.48700	0.01175	-0.03375	413.36764	-2.88365
4.48700	0.01158	0.02705	413.46765	-2.88295
4.48700	0.01141	-0.03395	413.56766	-2.88382
4.48700	0.01128	0.01625	413.66766	-2.88341
4.48700	0.01113	-0.05555	413.76767	-2.88483
4.48700	0.01088	-0.01975	413.86767	-2.88534
4.48700	0.01068	-0.04265	413.96768	-2.88643
4.48700	0.01056	0.01105	414.06768	-2.88615
4.48700	0.01037	-0.04015	414.16769	-2.88718
4.48700	0.01021	-0.49705	414.26769	-2.89992
4.48700	0.01003	-0.00895	414.36770	-2.90015
4.48700	0.00987	-0.01115	414.46771	-2.90044
4.48700	0.00973	0.79305	414.56771	-2.88010
4.48700	0.00951	-0.02725	414.66772	-2.88080
4.48700	0.00933	-0.04055	414.76772	-2.88184
4.48700	0.00910	-0.02415	414.86773	-2.88246
4.48700	0.00896	-0.01915	414.96773	-2.88295
4.48700	0.00875	-0.20915	415.06774	-2.88831
4.48700	0.00863	-0.02545	415.16775	-2.88897
4.48700	0.00845	0.01105	415.26775	-2.88868
4.48700	0.00827	0.24725	415.36776	-2.88234
4.48700	0.00815	-0.00865	415.46776	-2.88256
4.48700	0.00793	-0.02805	415.56777	-2.88328
4.48700	0.00781	-0.02475	415.66778	-2.88392
4.48700	0.00759	-0.03195	415.76778	-2.88474
4.48700	0.00742	-0.23415	415.86779	-2.89074
4.48700	0.00724	-0.00655	415.96779	-2.89091
4.48700	0.00706	-0.03525	416.06780	-2.89181
4.48700	0.00687	0.13325	416.16780	-2.88839
4.48700	0.00672	0.00255	416.26781	-2.88833
4.48700	0.00653	-0.28375	416.36782	-2.89561
4.48700	0.00634	-0.01185	416.46782	-2.89591
4.48700	0.00622	-0.04525	416.56783	-2.89707
4.48700	0.00601	0.07245	416.66783	-2.89521
4.48700	0.00585	0.77705	416.76784	-2.87529
4.48700	0.00566	-0.03575	416.86784	-2.87620
4.48700	0.00551	0.10985	416.96785	-2.87339
4.48700	0.00534	0.04465	417.06785	-2.87224
4.48700	0.00515	-0.04105	417.16786	-2.87329
4.48700	0.00501	-0.62245	417.26787	-2.88925
4.48700	0.00480	-0.04605	417.36787	-2.89043
4.48700	0.00466	-0.00105	417.46788	-2.89046
4.48700	0.00447	-0.05125	417.56788	-2.89178
4.48700	0.00431	-0.01255	417.66789	-2.89210
4.48700	0.00415	-0.02875	417.76790	-2.89283
4.48700	0.00398	-0.02245	417.86790	-2.89341
4.48700	0.00383	-0.04305	417.97191	-2.89456
4.48700	0.00362	-0.04115	418.06791	-2.89557
4.48700	0.00349	-0.04005	418.16792	-2.89660
4.48700	0.00325	-0.00805	418.26792	-2.89680
4.48700	0.00311	0.52015	418.36793	-2.88347
4.48700	0.00293	0.03415	418.46794	-2.88259
4.48700	0.00275	-0.16345	418.56794	-2.88678
4.48700	0.00260	-0.01035	418.66795	-2.88705
4.48700	0.00256	-0.03345	418.76795	-2.88790
4.48700	0.00232	0.06975	418.86796	-2.88612
4.48700	0.00210	-0.00925	418.96796	-2.88635
4.48700	0.00195	0.00505	419.06797	-2.88622
4.48700	0.00174	-0.09255	419.16797	-2.88860
4.48700	0.00159	-0.02325	419.26798	-2.88919
4.48700	0.00141	0.08115	419.36799	-2.88711
4.48700	0.00122	-0.01855	419.46799	-2.88759
4.48700	0.00104	-0.08245	419.56800	-2.88970
4.48700	0.00091	-0.02085	419.66800	-2.89023
4.48700	0.00075	-0.03535	419.76801	-2.89114
4.48700	0.00049	0.03285	419.86802	-2.89030
4.48700	0.00038	-0.03095	419.96802	-2.89109
4.48700	0.00016	-0.02575	420.06803	-0.00066
