Gain (V/A)	Calibration: V/I(Ohm)	I0 (pA)	B/V (T/V)	B0(T)	OFFSET current (pA)	Sample area (mm^2)	Keithley averaging	Stepping mode	Reoffset	Window (s)	Stabilization time (s)	Reoffsetting time (s)
1000000000.000000	0.587260	1.000000	10.000000	0.000000	0.000000	0.000000	0.000000	0.000000				
T(K)	B(T)	I(pA)	t(s)	P(uC/m^2)								
8.74500	0.02345	0.17234	-0.03400	-0.00586
8.16100	0.02338	0.19464	0.06600	0.01361
8.15300	0.02334	0.15924	0.16601	0.01592
8.14600	0.02327	0.12424	0.26602	0.01242
8.13700	0.02323	0.10184	0.36602	0.01018
8.12700	0.02320	0.14744	0.46603	0.01474
8.11600	0.02318	0.18064	0.56603	0.01806
8.10400	0.02314	0.26074	0.66504	0.02581
8.09200	0.02310	0.18444	0.76504	0.01844
8.08100	0.02307	0.20254	0.86505	0.02026
8.07100	0.02308	0.08454	0.96506	0.00845
8.06200	0.02309	0.09634	1.06506	0.00963
8.05700	0.02311	0.02234	1.16507	0.00223
8.05500	0.02309	0.02324	1.26507	0.00232
8.05800	0.02307	-0.10366	1.36508	-0.01037
8.06100	0.02305	-0.13706	1.46508	-0.01371
8.06400	0.02300	-0.23516	1.56509	-0.02352
8.06700	0.02300	-0.23416	1.66510	-0.02342
8.07000	0.02301	-0.23386	1.76510	-0.02339
8.07300	0.02304	-0.15856	1.86511	-0.01586
8.07700	0.02305	-0.21286	1.96511	-0.02129
8.08100	0.02306	-0.18756	2.06512	-0.01876
8.08400	0.02310	-0.26676	2.16512	-0.02668
8.08500	0.02313	-0.23266	2.26513	-0.02327
8.08600	0.02318	-0.23456	2.36514	-0.02346
8.08900	0.02320	-0.18616	2.46514	-0.01862
8.09400	0.02321	-0.27736	2.56515	-0.02774
8.10100	0.02321	-0.27496	2.66515	-0.02750
8.10700	0.02321	-0.31946	2.76516	-0.03195
8.11200	0.02324	-0.29326	2.86516	-0.02933
8.11700	0.02326	-0.28686	2.96517	-0.02869
8.12500	0.02329	-0.26596	3.06518	-0.02660
8.13600	0.02332	-0.27276	3.16518	-0.02728
8.14900	0.02334	-0.30156	3.26519	-0.03016
8.16200	0.02336	-0.38056	3.36519	-0.03806
8.17300	0.02339	-0.36506	3.46520	-0.03651
8.18500	0.02344	-0.41776	3.56520	-0.04178
8.19700	0.02349	-0.35126	3.66521	-0.03513
8.20900	0.02355	-0.39166	3.76522	-0.03917
8.22100	0.02357	-0.37256	3.86522	-0.03726
8.23100	0.02358	-0.40486	3.96523	-0.04049
8.24200	0.02363	-0.32556	4.06523	-0.03256
8.25200	0.02366	-0.35236	4.16524	-0.03524
8.26300	0.02369	-0.28446	4.26524	-0.02845
8.27400	0.02370	-0.35286	4.36525	-0.03529
8.28400	0.02370	-0.31406	4.46526	-0.03141
8.29300	0.02371	-0.35176	4.56526	-0.03518
8.30200	0.02372	-0.34766	4.66527	-0.03477
8.31100	0.02372	-0.39236	4.76527	-0.03924
8.31900	0.02375	-0.35196	4.86528	-0.03520
8.32700	0.02379	-0.34436	4.96528	-0.03444
8.33500	0.02386	-0.29546	5.06529	-0.02955
8.34400	0.02393	-0.38956	5.16530	-0.03896
8.35300	0.02397	-0.38026	5.26530	-0.03803
8.36100	0.02401	-0.45946	5.36531	-0.04595
8.37000	0.02403	-0.38706	5.46531	-0.03871
8.37600	0.02408	-0.39416	5.56532	-0.03942
8.38400	0.02415	-0.30006	5.66532	-0.03001
8.39100	0.02417	-0.32696	5.76533	-0.03270
8.39900	0.02422	-0.33606	5.86534	-0.03361
8.40600	0.02426	-0.41836	5.96534	-0.04184
8.41300	0.02430	-0.39136	6.06535	-0.03914
8.42000	0.02432	-0.37446	6.16535	-0.03745
8.42700	0.02433	-0.33586	6.26536	-0.03359
8.43400	0.02433	-0.39556	6.36536	-0.03956
8.44100	0.02434	-0.36846	6.46537	-0.03685
8.45200	0.02437	-0.41596	6.56538	-0.04160
8.46500	0.02439	-0.38266	6.66538	-0.03827
8.48000	0.02446	-0.46116	6.76539	-0.04612
8.49400	0.02449	-0.40436	6.86539	-0.04044
8.50700	0.02450	-0.43746	6.96540	-0.04375
8.52100	0.02454	-0.42306	7.06540	-0.04231
8.53500	0.02458	-0.47636	7.16541	-0.04764
8.54700	0.02462	-0.44606	7.26542	-0.04461
8.55900	0.02468	-0.46966	7.36542	-0.04697
8.57200	0.02470	-0.42236	7.46543	-0.04224
8.58600	0.02472	-0.44776	7.56543	-0.04478
8.60000	0.02478	-0.42686	7.66544	-0.04269
8.61300	0.02480	-0.49326	7.76544	-0.04933
8.62400	0.02486	-0.44096	7.86545	-0.04410
8.63400	0.02491	-0.49046	7.96546	-0.04905
8.64500	0.02494	-0.42476	8.06546	-0.04248
8.65600	0.02497	-0.45486	8.16547	-0.04549
8.66800	0.02503	-0.42506	8.26547	-0.04251
8.67900	0.02504	-0.46436	8.36548	-0.04644
8.68900	0.02505	-0.41456	8.46548	-0.04146
8.69700	0.02506	-0.46976	8.56549	-0.04698
8.70500	0.02507	-0.40296	8.66550	-0.04030
8.71300	0.02509	-0.43466	8.76550	-0.04347
8.72000	0.02511	-0.35866	8.86551	-0.03587
8.72800	0.02512	-0.37366	8.96551	-0.03737
8.73600	0.02515	-0.32466	9.06552	-0.03247
8.74600	0.02520	-0.39666	9.16552	-0.03967
8.75700	0.02525	-0.40506	9.26553	-0.04051
8.76900	0.02529	-0.47546	9.36554	-0.04755
8.78200	0.02535	-0.44826	9.46554	-0.04483
8.79400	0.02538	-0.48726	9.56555	-0.04873
8.80700	0.02544	-0.46026	9.66555	-0.04603
8.82000	0.02550	-0.50266	9.76556	-0.05027
8.83300	0.02553	-0.45776	9.86556	-0.04578
8.84800	0.02560	-0.51976	9.96557	-0.05198
8.86200	0.02562	-0.47256	10.06558	-0.04726
8.87600	0.02566	-0.54206	10.16558	-0.05421
8.89000	0.02568	-0.50856	10.26559	-0.05086
8.90200	0.02571	-0.53046	10.36559	-0.05305
8.91200	0.02573	-0.48526	10.46560	-0.04853
8.92200	0.02572	-0.46756	10.56560	-0.04676
8.93000	0.02573	-0.35386	10.66561	-0.03539
8.93900	0.02573	-0.38356	10.76562	-0.03836
8.94600	0.02577	-0.32596	10.86562	-0.03260
8.95300	0.02580	-0.38256	10.96563	-0.03826
8.96000	0.02584	-0.40656	11.06563	-0.04066
8.96800	0.02586	-0.47926	11.16564	-0.04793
8.97700	0.02587	-0.41606	11.26564	-0.04161
8.98500	0.02593	-0.44666	11.36565	-0.04467
8.99400	0.02598	-0.37586	11.46566	-0.03759
9.00200	0.02601	-0.39956	11.56566	-0.03996
9.01100	0.02605	-0.40336	11.66567	-0.04034
9.01900	0.02607	-0.45576	11.76567	-0.04558
9.02800	0.02611	-0.38306	11.86568	-0.03831
9.03700	0.02618	-0.39796	11.96568	-0.03980
9.04600	0.02623	-0.36796	12.06569	-0.03680
9.05500	0.02626	-0.41016	12.16570	-0.04102
9.06400	0.02630	-0.36286	12.26570	-0.03629
9.07200	0.02632	-0.39996	12.36571	-0.04000
9.08000	0.02632	-0.36726	12.46571	-0.03673
9.08800	0.02633	-0.41836	12.56572	-0.04184
9.09500	0.02633	-0.32736	12.66572	-0.03274
9.10200	0.02634	-0.31936	12.76573	-0.03194
9.10800	0.02634	-0.25476	12.86574	-0.02548
9.11200	0.02641	-0.30116	12.96574	-0.03012
9.11700	0.02647	-0.26816	13.06575	-0.02682
9.12100	0.02650	-0.32296	13.16575	-0.03230
9.12600	0.02651	-0.26646	13.26576	-0.02665
9.13100	0.02650	-0.27136	13.36576	-0.02714
9.13300	0.02650	-0.14836	13.46577	-0.01484
9.13400	0.02652	-0.17346	13.56578	-0.01735
9.13300	0.02650	-0.10066	13.66578	-0.01007
9.13300	0.02652	-0.17266	13.76579	-0.01727
9.13400	0.02651	-0.15696	13.86579	-0.01570
9.13500	0.02651	-0.16046	13.96580	-0.01605
9.13600	0.02651	-0.08026	14.06580	-0.00803
9.13500	0.02653	-0.09026	14.16581	-0.00903
9.13400	0.02655	-0.04666	14.26582	-0.00467
9.13200	0.02656	-0.09916	14.36582	-0.00992
9.13100	0.02655	-0.05726	14.46583	-0.00573
9.13200	0.02654	-0.14046	14.56583	-0.01405
9.13400	0.02654	-0.11046	14.66584	-0.01105
9.13700	0.02655	-0.17956	14.76584	-0.01796
9.14100	0.02656	-0.13046	14.86585	-0.01305
9.14500	0.02658	-0.18536	14.96586	-0.01854
9.14800	0.02659	-0.15676	15.06586	-0.01568
9.15100	0.02662	-0.17536	15.16587	-0.01754
9.15400	0.02665	-0.13516	15.26587	-0.01352
9.15800	0.02668	-0.22026	15.36588	-0.02203
9.16100	0.02668	-0.19666	15.46588	-0.01967
9.16600	0.02669	-0.26476	15.56589	-0.02648
9.17000	0.02670	-0.24556	15.66590	-0.02456
9.17500	0.02671	-0.24076	15.76590	-0.02408
9.17900	0.02672	-0.16416	15.86591	-0.01642
9.18100	0.02671	-0.17616	15.96591	-0.01762
9.18400	0.02669	-0.09846	16.06592	-0.00985
9.18600	0.02669	-0.11616	16.16592	-0.01162
9.18900	0.02669	-0.12156	16.26593	-0.01216
9.19100	0.02669	-0.20636	16.36594	-0.02064
9.19400	0.02672	-0.16536	16.46594	-0.01654
9.19500	0.02671	-0.18136	16.56595	-0.01814
9.19300	0.02671	-0.08596	16.66595	-0.00860
9.19200	0.02671	-0.08286	16.76596	-0.00829
9.19100	0.02669	-0.02546	16.86596	-0.00255
9.19200	0.02668	-0.07696	16.96597	-0.00770
9.19200	0.02668	-0.09446	17.06598	-0.00945
9.19300	0.02670	-0.16866	17.16598	-0.01687
9.19400	0.02673	-0.16256	17.26599	-0.01626
9.19400	0.02676	-0.19096	17.36599	-0.01910
9.19400	0.02680	-0.15256	17.46600	-0.01526
9.19600	0.02681	-0.19596	17.56600	-0.01960
9.19800	0.02681	-0.16106	17.66601	-0.01611
9.20100	0.02680	-0.15896	17.76602	-0.01590
9.20200	0.02677	-0.11326	17.86602	-0.01133
9.20200	0.02676	-0.12456	17.96603	-0.01246
9.20400	0.02678	-0.10596	18.06603	-0.01060
9.20500	0.02682	-0.13606	18.16504	-0.01347
9.20700	0.02684	-0.14586	18.26504	-0.01459
9.20800	0.02684	-0.16316	18.36505	-0.01632
9.20700	0.02683	-0.07686	18.46506	-0.00769
9.20700	0.02683	-0.05706	18.56506	-0.00571
9.20700	0.02683	-0.02186	18.66507	-0.00219
9.20800	0.02681	-0.07906	18.76507	-0.00791
9.21100	0.02682	-0.12376	18.86508	-0.01238
9.21400	0.02682	-0.19166	18.96508	-0.01917
9.21600	0.02684	-0.22446	19.06509	-0.02245
9.21900	0.02684	-0.22656	19.16510	-0.02266
9.22300	0.02685	-0.18706	19.26510	-0.01871
9.22600	0.02689	-0.21886	19.36511	-0.02189
9.22900	0.02691	-0.20206	19.46511	-0.02021
9.23100	0.02694	-0.26076	19.56512	-0.02608
9.23200	0.02696	-0.20636	19.66512	-0.02064
9.23300	0.02698	-0.21236	19.76513	-0.02124
9.23400	0.02700	-0.15186	19.86514	-0.01519
9.23700	0.02703	-0.13976	19.96514	-0.01398
9.23900	0.02706	-0.08486	20.06515	-0.00849
9.24100	0.02707	-0.11756	20.16515	-0.01176
9.24200	0.02708	-0.12286	20.26516	-0.01229
9.24400	0.02705	-0.17056	20.36516	-0.01706
9.24500	0.02702	-0.12686	20.46517	-0.01269
9.24600	0.02701	-0.14806	20.56518	-0.01481
9.24600	0.02702	-0.09366	20.66518	-0.00937
9.24600	0.02706	-0.14536	20.76519	-0.01454
9.24800	0.02709	-0.11546	20.86519	-0.01155
9.25000	0.02711	-0.13826	20.96520	-0.01383
9.25300	0.02713	-0.10236	21.06520	-0.01024
9.25600	0.02712	-0.15166	21.16521	-0.01517
9.25800	0.02709	-0.12666	21.26522	-0.01267
9.26000	0.02707	-0.15426	21.36522	-0.01543
9.26300	0.02707	-0.12036	21.46523	-0.01204
9.26300	0.02706	-0.14996	21.56523	-0.01500
9.26300	0.02706	-0.11706	21.66524	-0.01171
9.26300	0.02706	-0.13616	21.76524	-0.01362
9.26300	0.02707	-0.06236	21.86525	-0.00624
9.26500	0.02709	-0.10936	21.96526	-0.01094
9.26700	0.02713	-0.08426	22.06526	-0.00843
9.26800	0.02714	-0.16276	22.16527	-0.01628
9.26800	0.02713	-0.11906	22.26527	-0.01191
9.26700	0.02712	-0.14826	22.36528	-0.01483
9.26600	0.02710	-0.07876	22.46528	-0.00788
9.26500	0.02708	-0.11466	22.56529	-0.01147
9.26500	0.02708	-0.09036	22.66530	-0.00904
9.26700	0.02709	-0.16466	22.76530	-0.01647
9.26900	0.02709	-0.13326	22.86531	-0.01333
9.27100	0.02709	-0.18766	22.96531	-0.01877
9.27500	0.02708	-0.14896	23.06532	-0.01490
9.27900	0.02708	-0.19406	23.16533	-0.01941
9.28200	0.02709	-0.21256	23.26533	-0.02126
9.28500	0.02712	-0.24216	23.36534	-0.02422
9.28800	0.02714	-0.19046	23.46534	-0.01905
9.29100	0.02714	-0.16326	23.56535	-0.01633
9.29400	0.02713	-0.09236	23.66535	-0.00924
9.29400	0.02710	-0.12096	23.76536	-0.01210
9.29200	0.02707	-0.04926	23.86537	-0.00493
9.29200	0.02704	-0.11006	23.96537	-0.01101
9.29100	0.02703	-0.08276	24.06538	-0.00828
9.29000	0.02703	-0.15636	24.16538	-0.01564
9.28900	0.02703	-0.10196	24.26539	-0.01020
9.28600	0.02705	-0.12746	24.36539	-0.01275
9.28500	0.02704	-0.11226	24.46540	-0.01123
9.28500	0.02704	-0.17066	24.56540	-0.01707
9.28500	0.02706	-0.12076	24.66541	-0.01208
9.28600	0.02706	-0.11136	24.76542	-0.01114
9.28700	0.02705	-0.06746	24.86542	-0.00675
9.28800	0.02706	-0.10196	24.96543	-0.01020
9.28900	0.02706	-0.11946	25.06543	-0.01195
9.28900	0.02706	-0.17786	25.16544	-0.01779
9.29000	0.02708	-0.10446	25.26545	-0.01045
9.29100	0.02708	-0.17056	25.36545	-0.01706
9.29200	0.02708	-0.08026	25.46546	-0.00803
9.29300	0.02709	-0.12926	25.56546	-0.01293
9.29300	0.02710	-0.04356	25.66547	-0.00436
9.29300	0.02709	-0.07246	25.76547	-0.00725
9.29300	0.02709	-0.00446	25.86548	-0.00045
9.29300	0.02709	-0.07236	25.96549	-0.00724
9.29200	0.02708	-0.03786	26.06549	-0.00379
9.29200	0.02709	-0.08506	26.16550	-0.00851
9.29000	0.02711	-0.03846	26.26550	-0.00385
9.28800	0.02709	-0.04646	26.36551	-0.00465
9.28800	0.02707	-0.05566	26.46551	-0.00557
9.28800	0.02707	-0.13356	26.56552	-0.01336
9.28800	0.02706	-0.12106	26.66552	-0.01211
9.28900	0.02707	-0.16016	26.76553	-0.01602
9.29100	0.02708	-0.06056	26.86554	-0.00606
9.29200	0.02708	-0.05476	26.96554	-0.00548
9.29100	0.02709	0.04614	27.06555	0.00461
9.29000	0.02709	-0.00626	27.16555	-0.00063
9.28700	0.02710	0.00944	27.26556	0.00094
9.28500	0.02709	-0.05716	27.36557	-0.00572
9.28400	0.02708	-0.03106	27.46557	-0.00311
9.28300	0.02710	-0.06376	27.56558	-0.00638
9.28200	0.02711	-0.04126	27.66558	-0.00413
9.28200	0.02713	-0.08236	27.76559	-0.00824
9.28200	0.02717	-0.10866	27.86559	-0.01087
9.28200	0.02718	-0.17836	27.96560	-0.01784
9.28400	0.02716	-0.14486	28.06561	-0.01449
9.28500	0.02714	-0.17276	28.16561	-0.01728
9.28600	0.02713	-0.15426	28.26562	-0.01543
9.28900	0.02711	-0.16476	28.46563	-0.03295
9.29100	0.02712	-0.20576	28.56563	-0.02058
9.29300	0.02712	-0.17776	28.66564	-0.01778
9.29500	0.02714	-0.23866	28.76565	-0.02387
9.29800	0.02715	-0.18966	28.86565	-0.01897
9.29900	0.02714	-0.17806	28.96566	-0.01781
9.30000	0.02715	-0.06386	29.06566	-0.00639
9.30000	0.02713	-0.05876	29.16567	-0.00588
9.29900	0.02715	-0.02616	29.26567	-0.00262
9.29800	0.02716	-0.10406	29.36568	-0.01041
9.29400	0.02716	-0.08066	29.46569	-0.00807
9.29100	0.02718	-0.09856	29.56569	-0.00986
9.29000	0.02720	-0.01846	29.66570	-0.00185
9.28900	0.02721	-0.05146	29.76570	-0.00515
9.28800	0.02723	-0.05556	29.86571	-0.00556
9.28800	0.02725	-0.15366	29.96571	-0.01537
9.29100	0.02725	-0.15766	30.06572	-0.01577
9.29500	0.02726	-0.18706	30.16573	-0.01871
9.29800	0.02727	-0.14186	30.26573	-0.01419
9.30100	0.02728	-0.17986	30.36574	-0.01799
9.30300	0.02728	-0.16096	30.46574	-0.01610
9.30500	0.02729	-0.24566	30.56575	-0.02457
9.30700	0.02729	-0.21046	30.66575	-0.02105
9.31000	0.02729	-0.27076	30.76576	-0.02708
9.31300	0.02730	-0.19086	30.86577	-0.01909
9.31400	0.02730	-0.18956	30.96577	-0.01896
9.31500	0.02731	-0.10556	31.06578	-0.01056
9.31700	0.02732	-0.15226	31.16578	-0.01523
9.32000	0.02735	-0.15046	31.26579	-0.01505
9.32200	0.02737	-0.19516	31.36579	-0.01952
9.32300	0.02739	-0.15836	31.46580	-0.01584
9.32400	0.02739	-0.15366	31.56581	-0.01537
9.32500	0.02740	-0.10936	31.66581	-0.01094
9.32800	0.02740	-0.11056	31.76582	-0.01106
9.33100	0.02740	-0.08886	31.86582	-0.00889
9.33400	0.02741	-0.14426	31.96583	-0.01443
9.33700	0.02740	-0.11906	32.06583	-0.01191
9.33900	0.02739	-0.14706	32.16584	-0.01471
9.34100	0.02740	-0.08826	32.26585	-0.00883
9.34400	0.02740	-0.12636	32.36585	-0.01264
9.34600	0.02739	-0.12156	32.46586	-0.01216
9.34900	0.02737	-0.16736	32.56586	-0.01674
9.35300	0.02737	-0.15306	32.66587	-0.01531
9.35600	0.02738	-0.16866	32.76587	-0.01687
9.36000	0.02742	-0.17426	32.86588	-0.01743
9.36200	0.02743	-0.16016	32.96589	-0.01602
9.36300	0.02743	-0.16026	33.06589	-0.01603
9.36400	0.02745	-0.15366	33.16590	-0.01537
9.36300	0.02745	-0.13896	33.26590	-0.01390
9.36300	0.02748	-0.13906	33.36691	-0.01405
9.36500	0.02748	-0.09486	33.46591	-0.00939
9.36600	0.02746	-0.14476	33.56592	-0.01448
9.36600	0.02743	-0.15056	33.66593	-0.01506
9.36600	0.02741	-0.19636	33.76593	-0.01964
9.36800	0.02739	-0.15916	33.86594	-0.01592
9.36900	0.02737	-0.15206	33.96594	-0.01521
9.37000	0.02736	-0.11746	34.06595	-0.01175
9.37100	0.02735	-0.15256	34.16595	-0.01526
9.36900	0.02736	-0.06596	34.26596	-0.00660
9.36800	0.02737	-0.07616	34.36597	-0.00762
9.36800	0.02737	-0.03936	34.46597	-0.00394
9.36700	0.02736	-0.09346	34.56598	-0.00935
9.36300	0.02737	-0.04306	34.66598	-0.00431
9.35700	0.02739	-0.02476	34.76599	-0.00248
9.35100	0.02741	0.00614	34.86599	0.00061
9.34700	0.02743	0.00334	34.96600	0.00033
9.34500	0.02742	-0.03076	35.06601	-0.00308
9.34500	0.02743	-0.06146	35.16601	-0.00615
9.34600	0.02745	-0.08536	35.26602	-0.00854
9.34700	0.02747	-0.10046	35.36602	-0.01005
9.34600	0.02748	-0.08156	35.46603	-0.00816
9.34400	0.02748	-0.07656	35.56503	-0.00758
9.34200	0.02749	-0.06506	35.66504	-0.00651
9.34000	0.02747	-0.05816	35.76505	-0.00582
9.34000	0.02746	-0.01476	35.86505	-0.00148
9.34000	0.02745	-0.02786	35.96506	-0.00279
9.34200	0.02743	-0.00566	36.06506	-0.00057
9.34300	0.02744	-0.15016	36.36508	-0.04562
9.34400	0.02744	-0.15346	36.46509	-0.06096
9.34800	0.02746	-0.18436	36.56509	-0.07940
9.35300	0.02749	-0.15026	36.66510	-0.09443
9.35600	0.02749	-0.15766	36.76510	-0.11019
9.35800	0.02749	-0.08896	36.86511	-0.11909
9.35800	0.02748	-0.09316	36.96511	-0.12841
9.35500	0.02748	-0.06636	37.06512	-0.13504
9.35000	0.02748	-0.01856	37.16513	-0.13690
9.34400	0.02745	0.06134	37.26513	-0.13077
9.33700	0.02741	0.09384	37.36514	-0.12138
9.33100	0.02739	0.12444	37.46514	-0.10894
9.32600	0.02736	0.08044	37.56515	-0.10089
9.32300	0.02736	0.04884	37.66515	-0.09601
9.31900	0.02735	0.03654	37.76516	-0.09235
9.31500	0.02736	0.05774	37.86517	-0.08658
9.31100	0.02735	0.09594	37.96517	-0.07699
9.30500	0.02735	0.17494	38.06518	-0.05949
9.29600	0.02734	0.16724	38.16518	-0.04277
9.28600	0.02733	0.19874	38.26519	-0.02289
9.27800	0.02732	0.15364	38.36519	-0.00753
9.27200	0.02730	0.15464	38.46520	0.00794
9.26700	0.02727	0.12864	38.56521	0.02080
9.26000	0.02722	0.14694	38.66521	0.03550
9.25200	0.02717	0.12394	38.76522	0.04789
9.24300	0.02712	0.20144	38.86522	0.06804
9.23500	0.02711	0.17034	38.96523	0.08507
9.22900	0.02711	0.18944	39.06523	0.10402
9.22300	0.02712	0.14594	39.16524	0.11861
9.21700	0.02710	0.20414	39.26525	0.13903
9.21100	0.02707	0.14724	39.36525	0.15375
9.20500	0.02703	0.19224	39.46526	0.17298
9.19800	0.02697	0.12184	39.56526	0.18516
9.19200	0.02693	0.15364	39.66527	0.20053
9.18400	0.02691	0.14854	39.76527	0.21538
9.17600	0.02690	0.14384	39.86528	0.22977
9.17000	0.02690	0.14584	39.96529	0.24435
9.16400	0.02689	0.15524	40.06529	0.25988
9.15600	0.02688	0.13564	40.16530	0.27344
9.15000	0.02682	0.20944	40.26530	0.29439
9.14300	0.02678	0.14664	40.36531	0.30905
9.13700	0.02672	0.15114	40.46531	0.32417
9.13100	0.02669	0.13914	40.56532	0.33808
9.12400	0.02667	0.24554	40.66533	0.36264
9.11600	0.02666	0.27874	40.76533	0.39051
9.10600	0.02664	0.32074	40.86534	0.42259
9.09500	0.02664	0.23314	40.96534	0.44590
9.08500	0.02664	0.22954	41.06535	0.46886
9.07700	0.02659	0.20034	41.16535	0.48889
9.06900	0.02656	0.24194	41.26536	0.51309
9.06200	0.02653	0.21854	41.36537	0.53494
9.05300	0.02647	0.22104	41.46537	0.55705
9.04300	0.02644	0.24334	41.56538	0.58138
9.03200	0.02639	0.21844	41.66538	0.60323
9.02100	0.02637	0.22174	41.76539	0.62541
9.01000	0.02635	0.22244	41.86539	0.64765
8.99900	0.02630	0.23454	41.96540	0.67111
8.98700	0.02626	0.30664	42.06541	0.70177
8.97500	0.02623	0.30864	42.16541	0.73264
8.96400	0.02620	0.31834	42.26542	0.76447
8.95400	0.02621	0.25114	42.36542	0.78959
8.94300	0.02620	0.26504	42.46543	0.81609
8.93100	0.02618	0.27854	42.56543	0.84395
8.91900	0.02613	0.34254	42.66544	0.87821
8.90700	0.02609	0.31224	42.76545	0.90943
8.89400	0.02607	0.29764	42.86545	0.93920
8.88000	0.02605	0.21384	42.96546	0.96058
8.86600	0.02602	0.23914	43.06546	0.98450
8.85400	0.02597	0.21064	43.16547	1.00556
8.84300	0.02596	0.26594	43.26547	1.03216
8.83400	0.02595	0.22224	43.36548	1.05438
8.82700	0.02593	0.28914	43.46549	1.08330
8.82000	0.02592	0.24464	43.56549	1.10776
8.81100	0.02584	0.24114	43.66550	1.13188
8.80000	0.02580	0.18344	43.76550	1.15022
8.78900	0.02577	0.20424	43.86551	1.17065
8.77700	0.02574	0.16354	43.96551	1.18700
8.76600	0.02568	0.20444	44.06552	1.20745
8.75500	0.02565	0.20514	44.16553	1.22796
8.74500	0.02559	0.21384	44.26553	1.24935
8.73300	0.02554	0.22244	44.36554	1.27160
8.72000	0.02549	0.24154	44.46554	1.29575
8.70500	0.02545	0.25244	44.56555	1.32100
8.69100	0.02538	0.31754	44.66555	1.35275
8.67800	0.02532	0.27294	44.76556	1.38005
8.66700	0.02528	0.30364	44.86557	1.41041
8.65800	0.02525	0.23774	44.96557	1.43419
8.65000	0.02522	0.24454	45.06558	1.45864
8.64200	0.02521	0.23984	45.16558	1.48263
8.63500	0.02520	0.19444	45.26559	1.50207
8.62900	0.02518	0.17354	45.36559	1.51943
8.62200	0.02514	0.14804	45.46560	1.53423
8.61300	0.02512	0.14434	45.56561	1.54867
8.60500	0.02511	0.15454	45.66561	1.56412
8.59600	0.02510	0.16374	45.76562	1.58050
8.58700	0.02507	0.17164	45.86562	1.59766
8.57800	0.02500	0.16434	45.96563	1.61410
8.56700	0.02496	0.16644	46.06563	1.63074
8.55600	0.02491	0.17934	46.16564	1.64868
8.54400	0.02489	0.20574	46.26565	1.66925
8.53200	0.02487	0.20334	46.36565	1.68959
8.52000	0.02485	0.24824	46.46566	1.71441
8.50700	0.02482	0.21344	46.56566	1.73576
8.49500	0.02481	0.24654	46.66567	1.76041
8.48400	0.02476	0.19794	46.76567	1.78021
8.47500	0.02472	0.21624	46.86568	1.80183
8.46400	0.02464	0.21974	46.96569	1.82381
8.45300	0.02457	0.24414	47.06569	1.84823
8.44300	0.02454	0.23674	47.16570	1.87190
8.43400	0.02450	0.23734	47.26570	1.89564
8.42500	0.02451	0.18614	47.36571	1.91425
8.41700	0.02450	0.19614	47.46571	1.93387
8.41100	0.02449	0.16794	47.56572	1.95066
8.40400	0.02447	0.20604	47.66573	1.97127
8.39600	0.02445	0.21944	47.76573	1.99321
8.38800	0.02442	0.27154	47.86574	2.02037
8.38000	0.02440	0.24154	47.96574	2.04452
